title:take 1, start timestamp:1708896303.324575, stop timestamp:1708896347.329615, headset type:INSIGHT, headset serial:A2D2029A, headset firmware:932, channels:89, sampling rate:eeg_128;pm_0.1;pow_8, samples:5632      , version:2.2, 
Timestamp,OriginalTimestamp,EEG.Counter,EEG.Interpolated,EEG.AF3,EEG.T7,EEG.Pz,EEG.T8,EEG.AF4,EEG.RawCq,EEG.Battery,EEG.BatteryPercent,MarkerIndex,MarkerType,MarkerValueInt,EEG.MarkerHardware,CQ.AF3,CQ.T7,CQ.Pz,CQ.T8,CQ.AF4,CQ.Overall,EQ.SampleRateQuality,EQ.OVERALL,EQ.AF3,EQ.T7,EQ.Pz,EQ.T8,EQ.AF4,PM.Attention.IsActive,PM.Attention.Scaled,PM.Attention.Raw,PM.Attention.Min,PM.Attention.Max,PM.Engagement.IsActive,PM.Engagement.Scaled,PM.Engagement.Raw,PM.Engagement.Min,PM.Engagement.Max,PM.Excitement.IsActive,PM.Excitement.Scaled,PM.Excitement.Raw,PM.Excitement.Min,PM.Excitement.Max,PM.LongTermExcitement,PM.Stress.IsActive,PM.Stress.Scaled,PM.Stress.Raw,PM.Stress.Min,PM.Stress.Max,PM.Relaxation.IsActive,PM.Relaxation.Scaled,PM.Relaxation.Raw,PM.Relaxation.Min,PM.Relaxation.Max,PM.Interest.IsActive,PM.Interest.Scaled,PM.Interest.Raw,PM.Interest.Min,PM.Interest.Max,PM.Focus.IsActive,PM.Focus.Scaled,PM.Focus.Raw,PM.Focus.Min,PM.Focus.Max,POW.AF3.Theta,POW.AF3.Alpha,POW.AF3.BetaL,POW.AF3.BetaH,POW.AF3.Gamma,POW.T7.Theta,POW.T7.Alpha,POW.T7.BetaL,POW.T7.BetaH,POW.T7.Gamma,POW.Pz.Theta,POW.Pz.Alpha,POW.Pz.BetaL,POW.Pz.BetaH,POW.Pz.Gamma,POW.T8.Theta,POW.T8.Alpha,POW.T8.BetaL,POW.T8.BetaH,POW.T8.Gamma,POW.AF4.Theta,POW.AF4.Alpha,POW.AF4.BetaL,POW.AF4.BetaH,POW.AF4.Gamma
1708896303.324575,1708896303.325601,16.000000,0.000000,4089.743652,5019.487305,3914.871826,3601.538574,3910.256348,0.000000,3.000000,64.000000,,,,0.000000,4.000000,4.000000,2.000000,4.000000,4.000000,83.333336,,,,,,,,,,,,,,,,,,,,,,,,,,,,,,,,,,,,,,,,,,,,,,,,,,,,,,,,,,,,,,,,,,,,
1708896303.332390,1708896303.333516,17.000000,0.000000,3984.102539,5044.102539,4009.230713,3824.615479,3780.512939,0.000000,3.000000,64.000000,,,,0.000000,4.000000,4.000000,2.000000,4.000000,4.000000,83.333336,,,,,,,,,,,,,,,,,,,,,,,,,,,,,,,,,,,,,,,,,,,,,,,,,,,,,,,,,,,,,,,,,,,,
1708896303.340204,1708896303.341231,18.000000,0.000000,3854.358887,5046.666504,3911.281982,4003.076904,3680.512939,0.000000,3.000000,64.000000,,,,0.000000,4.000000,4.000000,2.000000,4.000000,4.000000,83.333336,,,,,,,,,,,,,,,,,,,,,,,,,,,,,,,,,,,,,,,,,,,,,,,,,,,,,,,,,,,,,,,,,,,,
1708896303.348019,1708896303.349147,19.000000,0.000000,3745.128174,4995.384766,3893.333252,3897.435791,3778.974365,0.000000,3.000000,64.000000,,,,0.000000,4.000000,4.000000,2.000000,4.000000,4.000000,83.333336,,,,,,,,,,,,,,,,,,,,,,,,,,,,,,,,,,,,,,,,,,,,,,,,,,,,,,,,,,,,,,,,,,,,
1708896303.355834,1708896303.357063,20.000000,0.000000,3765.128174,4964.102539,3828.205078,3797.948730,4043.076904,0.000000,3.000000,64.000000,,,,0.000000,4.000000,4.000000,2.000000,4.000000,4.000000,83.333336,,,,,,,,,,,,,,,,,,,,,,,,,,,,,,,,,,,,,,,,,,,,,,,,,,,,,,,,,,,,,,,,,,,,
1708896303.363649,1708896303.364978,21.000000,0.000000,4002.564209,4915.897461,3720.000000,3780.000000,4117.436035,0.000000,3.000000,64.000000,,,,0.000000,4.000000,4.000000,2.000000,4.000000,4.000000,83.333336,,,,,,,,,,,,,,,,,,,,,,,,,,,,,,,,,,,,,,,,,,,,,,,,,,,,,,,,,,,,,,,,,,,,
1708896303.371464,1708896303.372693,22.000000,0.000000,4153.333496,4776.410156,3822.051270,3664.615479,3992.820557,0.000000,3.000000,64.000000,,,,0.000000,4.000000,4.000000,2.000000,4.000000,4.000000,83.333336,,,,,,,,,,,,,,,,,,,,,,,,,,,,,,,,,,,,,,,,,,,,,,,,,,,,,,,,,,,,,,,,,,,,
1708896303.379278,1708896303.380608,23.000000,0.000000,4064.102539,4636.410156,3956.410156,3686.153809,3880.512939,0.000000,3.000000,64.000000,,,,0.000000,4.000000,4.000000,2.000000,4.000000,4.000000,83.333336,,,,,,,,,,,,,,,,,,,,,,,,,,,,,,,,,,,,,,,,,,,,,,,,,,,,,,,,,,,,,,,,,,,,
1708896303.387093,1708896303.388323,24.000000,0.000000,4014.871826,4581.025879,3985.641113,3990.769287,3806.153809,0.000000,3.000000,64.000000,,,,0.000000,4.000000,4.000000,2.000000,4.000000,4.000000,83.333336,,,,,,,,,,,,,,,,,,,,,,,,,,,,,,,,,,,,,,,,,,,,,,,,,,,,,,,,,,,,,,,,,,,,
1708896303.394908,1708896303.396239,25.000000,0.000000,3983.589844,4506.153809,4029.743652,4145.128418,3829.230713,0.000000,3.000000,64.000000,,,,0.000000,4.000000,4.000000,2.000000,4.000000,4.000000,83.333336,,,,,,,,,,,,,,,,,,,,,,,,,,,,,,,,,,,,,,,,,,,,,,,,,,,,,,,,,,,,,,,,,,,,
1708896303.402723,1708896303.404154,26.000000,0.000000,3840.512939,4354.871582,3949.230713,3966.153809,4030.769287,0.000000,3.000000,64.000000,,,,0.000000,4.000000,4.000000,2.000000,4.000000,4.000000,83.333336,,,,,,,,,,,,,,,,,,,,,,,,,,,,,,,,,,,,,,,,,,,,,,,,,,,,,,,,,,,,,,,,,,,,
1708896303.410538,1708896303.412070,27.000000,0.000000,3869.743652,4282.051270,3788.205078,3813.333252,4175.897461,0.000000,3.000000,64.000000,,,,0.000000,4.000000,4.000000,2.000000,4.000000,4.000000,83.333336,,,,,,,,,,,,,,,,,,,,,,,,,,,,,,,,,,,,,,,,,,,,,,,,,,,,,,,,,,,,,,,,,,,,
1708896303.418352,1708896303.419986,28.000000,0.000000,4071.794922,4340.512695,3802.564209,3874.871826,4161.538574,0.000000,3.000000,64.000000,,,,0.000000,4.000000,4.000000,2.000000,4.000000,4.000000,83.333336,,,,,,,,,,,,,,,,,,,,,,,,,,,,,,,,,,,,,,,,,,,,,,,,,,,,,,,,,,,,,,,,,,,,
1708896303.426167,1708896303.427901,29.000000,0.000000,4212.307617,4405.128418,3879.487061,3932.307617,4163.589844,0.000000,3.000000,64.000000,,,,0.000000,4.000000,4.000000,2.000000,4.000000,4.000000,83.333336,,,,,,,,,,,,,,,,,,,,,,,,,,,,,,,,,,,,,,,,,,,,404.560791,123.603828,36.420269,27.779804,29.180737,2102.072266,204.475281,115.837227,45.758381,21.991581,136.772400,64.384850,143.269684,38.453140,28.067972,65.843224,56.573639,161.512161,28.725876,22.932875,175.673203,54.461357,71.833801,23.250065,28.104885
1708896303.433982,1708896303.435616,30.000000,0.000000,4266.153809,4473.333496,3864.102539,3887.179443,4202.051270,0.000000,3.000000,64.000000,,,,0.000000,4.000000,4.000000,2.000000,4.000000,4.000000,83.333336,,,,,,,,,,,,,,,,,,,,,,,,,,,,,,,,,,,,,,,,,,,,,,,,,,,,,,,,,,,,,,,,,,,,
1708896303.441797,1708896303.443331,31.000000,0.000000,4240.512695,4541.025879,3848.718018,3853.333252,4244.102539,0.000000,3.000000,64.000000,,,,0.000000,4.000000,4.000000,2.000000,4.000000,4.000000,83.333336,,,,,,,,,,,,,,,,,,,,,,,,,,,,,,,,,,,,,,,,,,,,,,,,,,,,,,,,,,,,,,,,,,,,
1708896303.449611,1708896303.451045,32.000000,0.000000,4182.051270,4574.358887,3879.487061,3885.128174,4257.948730,0.000000,3.000000,64.000000,,,,0.000000,4.000000,4.000000,2.000000,4.000000,4.000000,83.333336,,,,,,,,,,,,,,,,,,,,,,,,,,,,,,,,,,,,,,,,,,,,,,,,,,,,,,,,,,,,,,,,,,,,
1708896303.457426,1708896303.458760,33.000000,0.000000,4122.563965,4587.692383,3854.871826,3914.871826,4255.384766,0.000000,3.000000,64.000000,,,,0.000000,4.000000,4.000000,2.000000,4.000000,4.000000,83.333336,,,,,,,,,,,,,,,,,,,,,,,,,,,,,,,,,,,,,,,,,,,,,,,,,,,,,,,,,,,,,,,,,,,,
1708896303.465241,1708896303.466475,34.000000,0.000000,4077.948730,4672.307617,3918.461426,3894.871826,4265.128418,0.000000,3.000000,64.000000,,,,0.000000,4.000000,4.000000,2.000000,4.000000,4.000000,83.333336,,,,,,,,,,,,,,,,,,,,,,,,,,,,,,,,,,,,,,,,,,,,,,,,,,,,,,,,,,,,,,,,,,,,
1708896303.473056,1708896303.474190,35.000000,0.000000,4137.948730,4835.897461,4052.307617,3962.564209,4188.205078,0.000000,3.000000,64.000000,,,,0.000000,4.000000,4.000000,2.000000,4.000000,4.000000,83.333336,,,,,,,,,,,,,,,,,,,,,,,,,,,,,,,,,,,,,,,,,,,,,,,,,,,,,,,,,,,,,,,,,,,,
1708896303.480871,1708896303.481904,36.000000,0.000000,4240.000000,4927.179688,4085.128174,4098.974121,4030.256348,0.000000,3.000000,64.000000,,,,0.000000,4.000000,4.000000,2.000000,4.000000,4.000000,83.333336,,,,,,,,,,,,,,,,,,,,,,,,,,,,,,,,,,,,,,,,,,,,,,,,,,,,,,,,,,,,,,,,,,,,
1708896303.488685,1708896303.489619,37.000000,0.000000,4203.077148,4880.512695,4083.076904,4163.077148,3961.538574,0.000000,3.000000,64.000000,,,,0.000000,4.000000,4.000000,2.000000,4.000000,4.000000,83.333336,,,,,,,,,,,,,,,,,,,,,,,,,,,,,,,,,,,,,,,,,,,,,,,,,,,,,,,,,,,,,,,,,,,,
1708896303.496500,1708896303.497334,38.000000,0.000000,4122.563965,4837.436035,4093.846191,4137.948730,3993.846191,0.000000,3.000000,64.000000,,,,0.000000,4.000000,4.000000,2.000000,4.000000,4.000000,83.333336,,,,,,,,,,,,,,,,,,,,,,,,,,,,,,,,,,,,,,,,,,,,,,,,,,,,,,,,,,,,,,,,,,,,
1708896303.504315,1708896303.505049,39.000000,0.000000,4181.025879,4886.153809,4121.538574,4103.589844,4007.179443,0.000000,3.000000,64.000000,,,,0.000000,4.000000,4.000000,2.000000,4.000000,4.000000,83.333336,,,,,,,,,,,,,,,,,,,,,,,,,,,,,,,,,,,,,,,,,,,,,,,,,,,,,,,,,,,,,,,,,,,,
1708896303.512130,1708896303.512763,40.000000,0.000000,4194.871582,4869.743652,4116.410156,4142.563965,3991.794922,0.000000,3.000000,64.000000,,,,0.000000,4.000000,4.000000,2.000000,4.000000,4.000000,83.333336,,,,,,,,,,,,,,,,,,,,,,,,,,,,,,,,,,,,,,,,,,,,,,,,,,,,,,,,,,,,,,,,,,,,
1708896303.519945,1708896303.520679,41.000000,0.000000,4166.666504,4848.205078,4074.358887,4118.461426,4011.794922,0.000000,3.000000,64.000000,,,,0.000000,4.000000,4.000000,2.000000,4.000000,4.000000,83.333336,,,,,,,,,,,,,,,,,,,,,,,,,,,,,,,,,,,,,,,,,,,,,,,,,,,,,,,,,,,,,,,,,,,,
1708896303.527759,1708896303.528594,42.000000,0.000000,4241.025879,4930.769043,4043.076904,3912.307617,4075.384521,0.000000,3.000000,64.000000,,,,0.000000,4.000000,4.000000,2.000000,4.000000,4.000000,83.333336,,,,,,,,,,,,,,,,,,,,,,,,,,,,,,,,,,,,,,,,,,,,,,,,,,,,,,,,,,,,,,,,,,,,
1708896303.535574,1708896303.536509,43.000000,0.000000,4281.538574,4975.384766,3967.692383,3758.461426,4133.846191,0.000000,3.000000,64.000000,,,,0.000000,4.000000,4.000000,2.000000,4.000000,4.000000,83.333336,,,,,,,,,,,,,,,,,,,,,,,,,,,,,,,,,,,,,,,,,,,,,,,,,,,,,,,,,,,,,,,,,,,,
1708896303.543389,1708896303.544424,44.000000,0.000000,4265.641113,5030.769043,3846.666748,3827.179443,4150.256348,0.000000,3.000000,64.000000,,,,0.000000,4.000000,4.000000,2.000000,4.000000,4.000000,83.333336,,,,,,,,,,,,,,,,,,,,,,,,,,,,,,,,,,,,,,,,,,,,,,,,,,,,,,,,,,,,,,,,,,,,
1708896303.551204,1708896303.552139,45.000000,0.000000,4271.282227,5188.205078,3810.769287,3911.281982,4182.563965,0.000000,3.000000,64.000000,,,,0.000000,4.000000,4.000000,2.000000,4.000000,4.000000,83.333336,,,,,,,,,,,,,,,,,,,,,,,,,,,,,,,,,,,,,,,,,,,,346.780884,105.398834,25.474058,28.591696,27.858221,1522.605347,144.796356,76.569168,29.068596,19.800379,142.083694,68.533653,124.540710,36.139652,28.302387,59.604671,48.096451,120.515572,30.202309,27.910950,156.445572,46.182869,49.029091,26.330334,25.636948
1708896303.559018,1708896303.559853,46.000000,0.000000,4188.717773,5304.615234,3875.897461,3917.435791,4246.666504,0.000000,3.000000,64.000000,,,,0.000000,4.000000,4.000000,2.000000,4.000000,4.000000,83.333336,,,,,,,,,,,,,,,,,,,,,,,,,,,,,,,,,,,,,,,,,,,,,,,,,,,,,,,,,,,,,,,,,,,,
1708896303.566833,1708896303.567568,47.000000,0.000000,4061.025635,5324.615234,3909.230713,3970.256348,4255.897461,0.000000,3.000000,64.000000,,,,0.000000,4.000000,4.000000,2.000000,4.000000,4.000000,83.333336,,,,,,,,,,,,,,,,,,,,,,,,,,,,,,,,,,,,,,,,,,,,,,,,,,,,,,,,,,,,,,,,,,,,
1708896303.574648,1708896303.575283,48.000000,0.000000,4025.641113,5387.179688,3893.846191,3964.102539,4229.743652,0.000000,3.000000,64.000000,,,,0.000000,4.000000,4.000000,2.000000,4.000000,4.000000,83.333336,,,,,,,,,,,,,,,,,,,,,,,,,,,,,,,,,,,,,,,,,,,,,,,,,,,,,,,,,,,,,,,,,,,,
1708896303.582463,1708896303.582998,49.000000,0.000000,4047.179443,5501.025879,3964.102539,3920.512939,4194.358887,0.000000,3.000000,64.000000,,,,0.000000,4.000000,4.000000,2.000000,4.000000,4.000000,83.333336,,,,,,,,,,,,,,,,,,,,,,,,,,,,,,,,,,,,,,,,,,,,,,,,,,,,,,,,,,,,,,,,,,,,
1708896303.590278,1708896303.590712,50.000000,0.000000,4076.923096,5574.358887,4024.615479,4005.641113,4107.692383,0.000000,3.000000,64.000000,,,,0.000000,4.000000,4.000000,2.000000,4.000000,4.000000,83.333336,,,,,,,,,,,,,,,,,,,,,,,,,,,,,,,,,,,,,,,,,,,,,,,,,,,,,,,,,,,,,,,,,,,,
1708896303.598092,1708896303.598427,51.000000,0.000000,4148.717773,5566.666504,4048.718018,4080.000000,4023.589844,0.000000,3.000000,64.000000,,,,0.000000,4.000000,4.000000,2.000000,4.000000,4.000000,83.333336,,,,,,,,,,,,,,,,,,,,,,,,,,,,,,,,,,,,,,,,,,,,,,,,,,,,,,,,,,,,,,,,,,,,
1708896303.605907,1708896303.606141,52.000000,0.000000,4191.794922,5533.333496,4053.846191,4111.282227,3978.461426,0.000000,3.000000,64.000000,,,,0.000000,4.000000,4.000000,2.000000,4.000000,4.000000,83.333336,,,,,,,,,,,,,,,,,,,,,,,,,,,,,,,,,,,,,,,,,,,,,,,,,,,,,,,,,,,,,,,,,,,,
1708896303.613722,1708896303.614055,53.000000,0.000000,4156.410156,5526.153809,4043.076904,4179.487305,3964.615479,0.000000,3.000000,64.000000,,,,0.000000,4.000000,4.000000,2.000000,4.000000,4.000000,83.333336,,,,,,,,,,,,,,,,,,,,,,,,,,,,,,,,,,,,,,,,,,,,,,,,,,,,,,,,,,,,,,,,,,,,
1708896303.621537,1708896303.621770,54.000000,0.000000,4133.333496,5509.743652,4085.641113,4197.436035,3955.897461,0.000000,3.000000,64.000000,,,,0.000000,4.000000,4.000000,2.000000,4.000000,4.000000,83.333336,,,,,,,,,,,,,,,,,,,,,,,,,,,,,,,,,,,,,,,,,,,,,,,,,,,,,,,,,,,,,,,,,,,,
1708896303.629352,1708896303.629685,55.000000,0.000000,4127.179688,5509.230957,4090.769287,4164.102539,3962.564209,0.000000,3.000000,64.000000,,,,0.000000,4.000000,4.000000,2.000000,4.000000,4.000000,83.333336,,,,,,,,,,,,,,,,,,,,,,,,,,,,,,,,,,,,,,,,,,,,,,,,,,,,,,,,,,,,,,,,,,,,
1708896303.637166,1708896303.637600,56.000000,0.000000,4122.051270,5515.384766,4071.794922,4154.358887,3960.000000,0.000000,3.000000,64.000000,,,,0.000000,4.000000,4.000000,2.000000,4.000000,4.000000,83.333336,,,,,,,,,,,,,,,,,,,,,,,,,,,,,,,,,,,,,,,,,,,,,,,,,,,,,,,,,,,,,,,,,,,,
1708896303.644981,1708896303.645515,57.000000,0.000000,4122.563965,5476.410156,4125.641113,4143.589844,3944.615479,0.000000,3.000000,64.000000,,,,0.000000,4.000000,4.000000,2.000000,4.000000,4.000000,83.333336,,,,,,,,,,,,,,,,,,,,,,,,,,,,,,,,,,,,,,,,,,,,,,,,,,,,,,,,,,,,,,,,,,,,
1708896303.652796,1708896303.653430,58.000000,0.000000,4150.256348,5553.846191,4112.307617,4114.871582,4064.102539,0.000000,3.000000,64.000000,,,,0.000000,4.000000,4.000000,2.000000,4.000000,4.000000,83.333336,,,,,,,,,,,,,,,,,,,,,,,,,,,,,,,,,,,,,,,,,,,,,,,,,,,,,,,,,,,,,,,,,,,,
1708896303.660611,1708896303.661346,59.000000,0.000000,4272.307617,5714.871582,3917.948730,4024.615479,4197.948730,0.000000,3.000000,64.000000,,,,0.000000,4.000000,4.000000,2.000000,4.000000,4.000000,83.333336,,,,,,,,,,,,,,,,,,,,,,,,,,,,,,,,,,,,,,,,,,,,,,,,,,,,,,,,,,,,,,,,,,,,
1708896303.668425,1708896303.669260,60.000000,0.000000,4362.051270,5767.179688,3792.820557,3928.205078,4164.102539,0.000000,3.000000,64.000000,,,,0.000000,4.000000,4.000000,2.000000,4.000000,4.000000,83.333336,,,,,,,,,,,,,,,,,,,,,,,,,,,,,,,,,,,,,,,,,,,,,,,,,,,,,,,,,,,,,,,,,,,,
1708896303.676240,1708896303.677176,61.000000,0.000000,4215.384766,5877.948730,3863.589844,3967.179443,4144.102539,0.000000,3.000000,64.000000,,,,0.000000,4.000000,4.000000,2.000000,4.000000,4.000000,83.333336,,,,,,,,,,,,,,,,,,,,,,,,,,,,,,,,,,,,,,,,,,,,253.840805,79.051628,16.909014,41.265022,30.504101,1183.244507,103.885239,47.324997,23.581484,22.680780,138.209869,68.559570,99.504402,43.939331,34.965591,48.957031,37.304703,79.084137,49.738983,41.214245,121.450111,35.218155,30.004608,44.855316,26.966551
1708896303.684055,1708896303.684891,62.000000,0.000000,4038.974365,6050.256348,3997.948730,4055.384521,4226.666504,0.000000,3.000000,64.000000,,,,0.000000,4.000000,4.000000,2.000000,4.000000,4.000000,83.333336,,,,,,,,,,,,,,,,,,,,,,,,,,,,,,,,,,,,,,,,,,,,,,,,,,,,,,,,,,,,,,,,,,,,
1708896303.691870,1708896303.692806,63.000000,0.000000,4101.538574,5920.512695,4074.358887,4107.692383,4128.205078,0.000000,3.000000,64.000000,,,,0.000000,4.000000,4.000000,2.000000,4.000000,4.000000,83.333336,,,,,,,,,,,,,,,,,,,,,,,,,,,,,,,,,,,,,,,,,,,,,,,,,,,,,,,,,,,,,,,,,,,,
1708896303.699685,1708896303.700521,64.000000,0.000000,4214.358887,5651.282227,4041.538574,4171.282227,3934.871826,450.000000,3.000000,64.000000,,,,0.000000,4.000000,4.000000,2.000000,4.000000,4.000000,83.333336,,,,,,,,,,,,,,,,,,,,,,,,,,,,,,,,,,,,,,,,,,,,,,,,,,,,,,,,,,,,,,,,,,,,
1708896303.707499,1708896303.708436,65.000000,0.000000,4168.205078,5587.179688,4072.820557,4168.205078,3982.051270,450.000000,3.000000,64.000000,,,,0.000000,4.000000,4.000000,2.000000,4.000000,4.000000,83.333336,,,,,,,,,,,,,,,,,,,,,,,,,,,,,,,,,,,,,,,,,,,,,,,,,,,,,,,,,,,,,,,,,,,,
1708896303.715314,1708896303.716151,66.000000,0.000000,4136.922852,5612.820313,4185.641113,4110.256348,4085.128174,1023.000000,3.000000,64.000000,,,,0.000000,4.000000,4.000000,2.000000,4.000000,4.000000,83.333336,,,,,,,,,,,,,,,,,,,,,,,,,,,,,,,,,,,,,,,,,,,,,,,,,,,,,,,,,,,,,,,,,,,,
1708896303.723129,1708896303.724066,67.000000,0.000000,4278.974121,5609.230957,4010.256348,4051.281982,4078.974365,450.000000,3.000000,64.000000,,,,0.000000,4.000000,4.000000,2.000000,4.000000,4.000000,83.333336,,,,,,,,,,,,,,,,,,,,,,,,,,,,,,,,,,,,,,,,,,,,,,,,,,,,,,,,,,,,,,,,,,,,
1708896303.730944,1708896303.731781,68.000000,0.000000,4426.153809,5646.666504,3811.281982,3984.615479,4140.000000,1023.000000,3.000000,64.000000,,,,0.000000,4.000000,4.000000,2.000000,4.000000,4.000000,83.333336,,,,,,,,,,,,,,,,,,,,,,,,,,,,,,,,,,,,,,,,,,,,,,,,,,,,,,,,,,,,,,,,,,,,
1708896303.738758,1708896303.739696,69.000000,0.000000,4346.666504,5763.589844,3925.128174,4016.410156,4241.025879,450.000000,3.000000,64.000000,,,,0.000000,4.000000,4.000000,2.000000,4.000000,4.000000,83.333336,,,,,,,,,,,,,,,,,,,,,,,,,,,,,,,,,,,,,,,,,,,,,,,,,,,,,,,,,,,,,,,,,,,,
1708896303.746573,1708896303.747411,70.000000,0.000000,4148.205078,5822.563965,3994.871826,4101.025879,4241.538574,1023.000000,3.000000,64.000000,,,,0.000000,4.000000,4.000000,4.000000,4.000000,4.000000,100.000000,,,,,,,,,,,,,,,,,,,,,,,,,,,,,,,,,,,,,,,,,,,,,,,,,,,,,,,,,,,,,,,,,,,,
1708896303.754388,1708896303.755326,71.000000,0.000000,4174.358887,5610.256348,4017.435791,4098.461426,4192.820313,450.000000,3.000000,64.000000,,,,0.000000,4.000000,4.000000,4.000000,4.000000,4.000000,100.000000,,,,,,,,,,,,,,,,,,,,,,,,,,,,,,,,,,,,,,,,,,,,,,,,,,,,,,,,,,,,,,,,,,,,
1708896303.762203,1708896303.763040,72.000000,0.000000,4270.769043,5259.487305,4182.563965,4186.153809,4148.717773,450.000000,3.000000,64.000000,,,,0.000000,4.000000,4.000000,4.000000,4.000000,4.000000,100.000000,,,,,,,,,,,,,,,,,,,,,,,,,,,,,,,,,,,,,,,,,,,,,,,,,,,,,,,,,,,,,,,,,,,,
1708896303.770018,1708896303.770955,73.000000,0.000000,4219.487305,5102.051270,4160.512695,4278.974121,4144.102539,1023.000000,3.000000,64.000000,,,,0.000000,4.000000,4.000000,4.000000,4.000000,4.000000,100.000000,,,,,,,,,,,,,,,,,,,,,,,,,,,,,,,,,,,,,,,,,,,,,,,,,,,,,,,,,,,,,,,,,,,,
1708896303.777832,1708896303.778670,74.000000,0.000000,4295.384766,5089.230957,3987.692383,4102.563965,4207.692383,450.000000,3.000000,64.000000,,,,0.000000,4.000000,4.000000,4.000000,4.000000,4.000000,100.000000,,,,,,,,,,,,,,,,,,,,,,,,,,,,,,,,,,,,,,,,,,,,,,,,,,,,,,,,,,,,,,,,,,,,
1708896303.785647,1708896303.786585,75.000000,0.000000,4465.641113,5116.410156,4033.333252,3971.794922,4288.205078,1023.000000,3.000000,64.000000,,,,0.000000,4.000000,4.000000,4.000000,4.000000,4.000000,100.000000,,,,,,,,,,,,,,,,,,,,,,,,,,,,,,,,,,,,,,,,,,,,,,,,,,,,,,,,,,,,,,,,,,,,
1708896303.793462,1708896303.794300,76.000000,0.000000,4425.128418,5195.384766,4095.384521,4123.077148,4284.102539,450.000000,3.000000,64.000000,,,,0.000000,4.000000,4.000000,4.000000,4.000000,4.000000,100.000000,,,,,,,,,,,,,,,,,,,,,,,,,,,,,,,,,,,,,,,,,,,,,,,,,,,,,,,,,,,,,,,,,,,,
1708896303.801277,1708896303.802215,77.000000,0.000000,4299.487305,5114.358887,4042.051270,4267.692383,4255.897461,450.000000,3.000000,64.000000,,,,0.000000,4.000000,4.000000,4.000000,4.000000,4.000000,100.000000,1.000000,0.000000,0.000000,0.000000,0.000000,0.000000,0.000000,,,,,,,,,,,,,,,,,,,,,,,,,,,,,,,,,,,,,153.608688,53.954346,12.807140,69.738838,36.964718,1142.532959,99.079597,31.197460,26.504009,28.313831,128.391464,67.684288,75.223206,62.852699,46.880745,37.517971,31.961437,47.167885,91.716743,61.331532,86.407784,29.093483,17.653360,83.110420,32.173828
1708896303.809091,1708896303.809929,78.000000,0.000000,4326.153809,4886.666504,4153.846191,4195.897461,4299.487305,450.000000,3.000000,64.000000,,,,0.000000,4.000000,4.000000,4.000000,4.000000,4.000000,100.000000,,,,,,,,,,,,,,,,,,,,,,,,,,,,,,,,,,,,,,,,,,,,,,,,,,,,,,,,,,,,,,,,,,,,
1708896303.816906,1708896303.817844,79.000000,0.000000,4414.358887,4826.666504,4286.153809,4105.128418,4325.641113,1023.000000,3.000000,64.000000,,,,0.000000,4.000000,4.000000,4.000000,4.000000,4.000000,100.000000,,,,,,,,,,,,,,,,,,,,,,,,,,,,,,,,,,,,,,,,,,,,,,,,,,,,,,,,,,,,,,,,,,,,
1708896303.824721,1708896303.825559,80.000000,0.000000,4373.846191,4889.743652,4082.564209,4128.205078,4352.820313,450.000000,3.000000,64.000000,,,,0.000000,4.000000,4.000000,4.000000,4.000000,4.000000,100.000000,,,,,,,,,,,,,,,,,,,,,,,,,,,,,,,,,,,,,,,,,,,,,,,,,,,,,,,,,,,,,,,,,,,,
1708896303.832536,1708896303.833474,81.000000,0.000000,4285.641113,4884.102539,3916.410156,4164.102539,4430.769043,450.000000,3.000000,64.000000,,,,0.000000,4.000000,4.000000,4.000000,4.000000,4.000000,100.000000,,,,,,,,,,,,,,,,,,,,,,,,,,,,,,,,,,,,,,,,,,,,,,,,,,,,,,,,,,,,,,,,,,,,
1708896303.840351,1708896303.841188,82.000000,0.000000,4297.436035,4856.410156,4176.410156,4209.743652,4412.820313,450.000000,3.000000,64.000000,,,,0.000000,4.000000,4.000000,4.000000,4.000000,4.000000,100.000000,,,,,,,,,,,,,,,,,,,,,,,,,,,,,,,,,,,,,,,,,,,,,,,,,,,,,,,,,,,,,,,,,,,,
1708896303.848165,1708896303.848903,83.000000,0.000000,4340.000000,4845.641113,4341.025879,4270.769043,4296.922852,1023.000000,3.000000,64.000000,,,,0.000000,4.000000,4.000000,4.000000,4.000000,4.000000,100.000000,,,,,,,,,,,,,,,,,,,,,,,,,,,,,,,,,,,,,,,,,,,,,,,,,,,,,,,,,,,,,,,,,,,,
1708896303.855980,1708896303.856819,84.000000,0.000000,4396.922852,4843.077148,4043.076904,4243.077148,4277.436035,450.000000,3.000000,64.000000,,,,0.000000,4.000000,4.000000,4.000000,4.000000,4.000000,100.000000,,,,,,,,,,,,,,,,,,,,,,,,,,,,,,,,,,,,,,,,,,,,,,,,,,,,,,,,,,,,,,,,,,,,
1708896303.863795,1708896303.864734,85.000000,0.000000,4497.436035,4897.436035,3864.102539,4122.051270,4320.512695,450.000000,3.000000,64.000000,,,,0.000000,4.000000,4.000000,4.000000,4.000000,4.000000,100.000000,,,,,,,,,,,,,,,,,,,,,,,,,,,,,,,,,,,,,,,,,,,,,,,,,,,,,,,,,,,,,,,,,,,,
1708896303.871610,1708896303.872448,86.000000,0.000000,4482.051270,4904.615234,3978.974365,4104.102539,4365.641113,450.000000,3.000000,64.000000,,,,0.000000,4.000000,4.000000,4.000000,4.000000,4.000000,100.000000,,,,,,,,,,,,,,,,,,,,,,,,,,,,,,,,,,,,,,,,,,,,,,,,,,,,,,,,,,,,,,,,,,,,
1708896303.879424,1708896303.880163,87.000000,0.000000,4405.128418,4854.358887,4048.718018,4200.000000,4420.000000,1023.000000,3.000000,64.000000,,,,0.000000,4.000000,4.000000,4.000000,4.000000,4.000000,100.000000,,,,,,,,,,,,,,,,,,,,,,,,,,,,,,,,,,,,,,,,,,,,,,,,,,,,,,,,,,,,,,,,,,,,
1708896303.887239,1708896303.887878,88.000000,0.000000,4482.051270,4979.487305,4083.076904,4227.692383,4467.692383,450.000000,3.000000,64.000000,,,,0.000000,4.000000,4.000000,4.000000,4.000000,4.000000,100.000000,,,,,,,,,,,,,,,,,,,,,,,,,,,,,,,,,,,,,,,,,,,,,,,,,,,,,,,,,,,,,,,,,,,,
1708896303.895054,1708896303.895593,89.000000,0.000000,4564.102539,5152.307617,4201.538574,4233.846191,4571.282227,450.000000,3.000000,64.000000,,,,0.000000,4.000000,4.000000,4.000000,4.000000,4.000000,100.000000,,,,,,,,,,,,,,,,,,,,,,,,,,,,,,,,,,,,,,,,,,,,,,,,,,,,,,,,,,,,,,,,,,,,
1708896303.902869,1708896303.903307,90.000000,0.000000,4582.563965,5122.563965,4254.871582,4387.179688,4674.358887,450.000000,3.000000,64.000000,,,,0.000000,4.000000,4.000000,4.000000,4.000000,4.000000,100.000000,,,,,,,,,,,,,,,,,,,,,,,,,,,,,,,,,,,,,,,,,,,,,,,,,,,,,,,,,,,,,,,,,,,,
1708896303.910684,1708896303.911022,91.000000,0.000000,4662.051270,5101.025879,4238.461426,4559.487305,4673.333496,1023.000000,3.000000,64.000000,,,,0.000000,4.000000,4.000000,4.000000,4.000000,4.000000,100.000000,,,,,,,,,,,,,,,,,,,,,,,,,,,,,,,,,,,,,,,,,,,,,,,,,,,,,,,,,,,,,,,,,,,,
1708896303.918498,1708896303.918737,92.000000,0.000000,4684.102539,5159.487305,4256.922852,4522.563965,4626.153809,450.000000,3.000000,64.000000,,,,0.000000,4.000000,4.000000,4.000000,4.000000,4.000000,100.000000,,,,,,,,,,,,,,,,,,,,,,,,,,,,,,,,,,,,,,,,,,,,,,,,,,,,,,,,,,,,,,,,,,,,
1708896303.926313,1708896303.926653,93.000000,0.000000,4633.333496,5127.692383,4215.384766,4392.820313,4590.256348,450.000000,3.000000,64.000000,,,,0.000000,4.000000,4.000000,4.000000,4.000000,4.000000,100.000000,,,,,,,,,,,,,,,,,,,,,,,,,,,,,,,,,,,,,,,,,,,,77.065605,38.333488,13.377305,112.390640,45.175415,1295.953003,129.809708,25.827770,34.937729,34.407658,120.888634,71.521843,56.777950,89.837730,60.489929,33.651085,40.124187,29.526373,150.999649,82.869644,71.789604,38.145985,11.819097,136.892776,39.121853
1708896303.934128,1708896303.934568,94.000000,0.000000,4720.000000,5177.436035,4258.974121,4478.461426,4649.743652,450.000000,3.000000,64.000000,,,,0.000000,4.000000,4.000000,4.000000,4.000000,4.000000,100.000000,,,,,,,,,,,,,,,,,,,,,,,,,,,,,,,,,,,,,,,,,,,,,,,,,,,,,,,,,,,,,,,,,,,,
1708896303.941943,1708896303.942283,95.000000,0.000000,4876.922852,5374.358887,4485.128418,4718.974121,4838.974121,1023.000000,3.000000,64.000000,,,,0.000000,4.000000,4.000000,4.000000,4.000000,4.000000,100.000000,,,,,,,,,,,,,,,,,,,,,,,,,,,,,,,,,,,,,,,,,,,,,,,,,,,,,,,,,,,,,,,,,,,,
1708896303.949757,1708896303.949997,96.000000,0.000000,4985.128418,5448.717773,4674.871582,4827.179688,4977.436035,450.000000,3.000000,64.000000,,,,0.000000,4.000000,4.000000,4.000000,4.000000,4.000000,100.000000,,,,,,,,,,,,,,,,,,,,,,,,,,,,,,,,,,,,,,,,,,,,,,,,,,,,,,,,,,,,,,,,,,,,
1708896303.957572,1708896303.957712,97.000000,0.000000,5085.641113,5434.871582,4663.589844,4840.000000,5011.282227,450.000000,3.000000,64.000000,,,,0.000000,4.000000,4.000000,4.000000,4.000000,4.000000,100.000000,,,,,,,,,,,,,,,,,,,,,,,,,,,,,,,,,,,,,,,,,,,,,,,,,,,,,,,,,,,,,,,,,,,,
1708896303.965387,1708896303.965627,98.000000,0.000000,5138.974121,5514.871582,4642.563965,4907.692383,5063.589844,450.000000,3.000000,64.000000,,,,0.000000,4.000000,4.000000,4.000000,4.000000,4.000000,100.000000,,,,,,,,,,,,,,,,,,,,,,,,,,,,,,,,,,,,,,,,,,,,,,,,,,,,,,,,,,,,,,,,,,,,
1708896303.973202,1708896303.973342,99.000000,0.000000,5138.461426,5577.436035,4686.153809,4973.333496,5082.051270,1023.000000,3.000000,64.000000,,,,0.000000,4.000000,4.000000,4.000000,4.000000,4.000000,100.000000,,,,,,,,,,,,,,,,,,,,,,,,,,,,,,,,,,,,,,,,,,,,,,,,,,,,,,,,,,,,,,,,,,,,
1708896303.981017,1708896303.981056,100.000000,0.000000,5142.563965,5564.102539,4672.820313,4956.410156,5057.948730,450.000000,3.000000,64.000000,,,,0.000000,4.000000,4.000000,4.000000,4.000000,4.000000,100.000000,,,,,,,,,,,,,,,,,,,,,,,,,,,,,,,,,,,,,,,,,,,,,,,,,,,,,,,,,,,,,,,,,,,,
1708896303.988831,1708896303.988771,101.000000,0.000000,5163.589844,5565.128418,4660.512695,4926.153809,5092.307617,450.000000,3.000000,64.000000,,,,0.000000,4.000000,4.000000,4.000000,4.000000,4.000000,100.000000,,,,,,,,,,,,,,,,,,,,,,,,,,,,,,,,,,,,,,,,,,,,,,,,,,,,,,,,,,,,,,,,,,,,
1708896303.996646,1708896303.996485,102.000000,0.000000,5170.769043,5560.512695,4686.153809,4932.820313,5108.717773,450.000000,3.000000,64.000000,,,,0.000000,4.000000,4.000000,4.000000,4.000000,4.000000,100.000000,,,,,,,,,,,,,,,,,,,,,,,,,,,,,,,,,,,,,,,,,,,,,,,,,,,,,,,,,,,,,,,,,,,,
1708896304.004461,1708896304.004400,103.000000,0.000000,5157.948730,5526.153809,4693.846191,4968.717773,5077.948730,1023.000000,3.000000,64.000000,,,,0.000000,4.000000,4.000000,4.000000,4.000000,4.000000,100.000000,,,,,,,,,,,,,,,,,,,,,,,,,,,,,,,,,,,,,,,,,,,,,,,,,,,,,,,,,,,,,,,,,,,,
1708896304.012276,1708896304.012315,104.000000,0.000000,5141.538574,5469.230957,4690.256348,4989.743652,5083.589844,450.000000,3.000000,64.000000,,,,0.000000,4.000000,4.000000,4.000000,4.000000,4.000000,100.000000,,,,,,,,,,,,,,,,,,,,,,,,,,,,,,,,,,,,,,,,,,,,,,,,,,,,,,,,,,,,,,,,,,,,
1708896304.020090,1708896304.020230,105.000000,0.000000,5153.846191,5430.769043,4721.025879,4960.000000,5124.102539,450.000000,3.000000,64.000000,,,,0.000000,4.000000,4.000000,4.000000,4.000000,4.000000,100.000000,,,,,,,,,,,,,,,,,,,,,,,,,,,,,,,,,,,,,,,,,,,,,,,,,,,,,,,,,,,,,,,,,,,,
1708896304.027905,1708896304.028145,106.000000,0.000000,5166.666504,5392.820313,4720.000000,4936.922852,5120.000000,450.000000,3.000000,64.000000,,,,0.000000,4.000000,4.000000,4.000000,4.000000,4.000000,100.000000,,,,,,,,,,,,,,,,,,,,,,,,,,,,,,,,,,,,,,,,,,,,,,,,,,,,,,,,,,,,,,,,,,,,
1708896304.035720,1708896304.036060,107.000000,0.000000,5145.641113,5320.512695,4673.333496,4931.282227,5082.051270,1023.000000,3.000000,64.000000,,,,0.000000,4.000000,4.000000,4.000000,4.000000,4.000000,100.000000,,,,,,,,,,,,,,,,,,,,,,,,,,,,,,,,,,,,,,,,,,,,,,,,,,,,,,,,,,,,,,,,,,,,
1708896304.043535,1708896304.043775,108.000000,0.000000,5135.897461,5236.922852,4669.743652,4911.282227,5076.922852,450.000000,3.000000,64.000000,,,,0.000000,4.000000,4.000000,4.000000,4.000000,4.000000,100.000000,,,,,,,,,,,,,,,,,,,,,,,,,,,,,,,,,,,,,,,,,,,,,,,,,,,,,,,,,,,,,,,,,,,,
1708896304.051350,1708896304.051691,109.000000,0.000000,5137.436035,5162.051270,4672.307617,4896.922852,5096.410156,450.000000,3.000000,64.000000,,,,0.000000,4.000000,4.000000,4.000000,4.000000,4.000000,100.000000,,,,,,,,,,,,,,,,,,,,,,,,,,,,,,,,,,,,,,,,,,,,38.475304,35.494942,18.244068,160.935776,52.093464,1472.330688,185.036392,31.092859,47.825771,38.846458,120.213257,84.801857,46.769356,118.587433,71.350739,41.996616,64.854568,25.867727,213.370514,98.804420,86.104385,68.873596,11.500173,193.138290,44.511467
1708896304.059164,1708896304.059406,110.000000,0.000000,5127.692383,5108.205078,4650.769043,4876.922852,5080.512695,450.000000,3.000000,64.000000,,,,0.000000,4.000000,4.000000,4.000000,4.000000,4.000000,100.000000,,,,,,,,,,,,,,,,,,,,,,,,,,,,,,,,,,,,,,,,,,,,,,,,,,,,,,,,,,,,,,,,,,,,
1708896304.066979,1708896304.067321,111.000000,0.000000,5112.820313,5049.230957,4623.077148,4857.436035,5052.820313,1023.000000,3.000000,64.000000,,,,0.000000,4.000000,4.000000,4.000000,4.000000,4.000000,100.000000,,,,,,,,,,,,,,,,,,,,,,,,,,,,,,,,,,,,,,,,,,,,,,,,,,,,,,,,,,,,,,,,,,,,
1708896304.074794,1708896304.075136,112.000000,0.000000,5082.563965,4990.256348,4609.230957,4858.974121,5060.512695,450.000000,3.000000,64.000000,,,,0.000000,4.000000,4.000000,4.000000,4.000000,4.000000,100.000000,,,,,,,,,,,,,,,,,,,,,,,,,,,,,,,,,,,,,,,,,,,,,,,,,,,,,,,,,,,,,,,,,,,,
1708896304.082609,1708896304.083051,113.000000,0.000000,5081.025879,4999.487305,4636.410156,4848.717773,5072.307617,450.000000,3.000000,64.000000,,,,0.000000,4.000000,4.000000,4.000000,4.000000,4.000000,100.000000,,,,,,,,,,,,,,,,,,,,,,,,,,,,,,,,,,,,,,,,,,,,,,,,,,,,,,,,,,,,,,,,,,,,
1708896304.090423,1708896304.090766,114.000000,0.000000,5109.230957,5016.410156,4626.153809,4835.384766,5048.205078,450.000000,3.000000,64.000000,,,,0.000000,4.000000,4.000000,4.000000,4.000000,4.000000,100.000000,,,,,,,,,,,,,,,,,,,,,,,,,,,,,,,,,,,,,,,,,,,,,,,,,,,,,,,,,,,,,,,,,,,,
1708896304.098238,1708896304.098681,115.000000,0.000000,5070.769043,4972.820313,4603.077148,4838.461426,5010.256348,1023.000000,3.000000,64.000000,,,,0.000000,4.000000,4.000000,4.000000,4.000000,4.000000,100.000000,,,,,,,,,,,,,,,,,,,,,,,,,,,,,,,,,,,,,,,,,,,,,,,,,,,,,,,,,,,,,,,,,,,,
1708896304.106053,1708896304.106396,116.000000,0.000000,5016.922852,4951.282227,4576.410156,4811.282227,4978.461426,450.000000,3.000000,64.000000,,,,0.000000,4.000000,4.000000,4.000000,4.000000,4.000000,100.000000,,,,,,,,,,,,,,,,,,,,,,,,,,,,,,,,,,,,,,,,,,,,,,,,,,,,,,,,,,,,,,,,,,,,
1708896304.113868,1708896304.114311,117.000000,0.000000,5042.051270,4991.282227,4584.102539,4775.384766,4965.128418,450.000000,3.000000,64.000000,,,,0.000000,4.000000,4.000000,4.000000,4.000000,4.000000,100.000000,,,,,,,,,,,,,,,,,,,,,,,,,,,,,,,,,,,,,,,,,,,,,,,,,,,,,,,,,,,,,,,,,,,,
1708896304.121683,1708896304.122026,118.000000,0.000000,5077.436035,4977.436035,4612.307617,4801.538574,4994.358887,450.000000,3.000000,64.000000,,,,0.000000,4.000000,4.000000,4.000000,4.000000,4.000000,100.000000,,,,,,,,,,,,,,,,,,,,,,,,,,,,,,,,,,,,,,,,,,,,,,,,,,,,,,,,,,,,,,,,,,,,
1708896304.129497,1708896304.129941,119.000000,0.000000,5052.820313,4908.205078,4596.922852,4827.179688,5035.897461,1023.000000,3.000000,64.000000,,,,0.000000,4.000000,4.000000,4.000000,4.000000,4.000000,100.000000,,,,,,,,,,,,,,,,,,,,,,,,,,,,,,,,,,,,,,,,,,,,,,,,,,,,,,,,,,,,,,,,,,,,
1708896304.137312,1708896304.137655,120.000000,0.000000,5031.794922,4911.794922,4600.512695,4800.512695,5029.743652,450.000000,3.000000,64.000000,,,,0.000000,4.000000,4.000000,4.000000,4.000000,4.000000,100.000000,,,,,,,,,,,,,,,,,,,,,,,,,,,,,,,,,,,,,,,,,,,,,,,,,,,,,,,,,,,,,,,,,,,,
1708896304.145127,1708896304.145570,121.000000,0.000000,5045.641113,4973.846191,4589.230957,4765.641113,4989.230957,450.000000,3.000000,64.000000,,,,0.000000,4.000000,4.000000,4.000000,4.000000,4.000000,100.000000,,,,,,,,,,,,,,,,,,,,,,,,,,,,,,,,,,,,,,,,,,,,,,,,,,,,,,,,,,,,,,,,,,,,
1708896304.152942,1708896304.153285,122.000000,0.000000,5042.051270,5023.589844,4566.153809,4775.897461,4964.102539,450.000000,3.000000,64.000000,,,,0.000000,4.000000,4.000000,4.000000,4.000000,4.000000,100.000000,,,,,,,,,,,,,,,,,,,,,,,,,,,,,,,,,,,,,,,,,,,,,,,,,,,,,,,,,,,,,,,,,,,,
1708896304.160757,1708896304.161200,123.000000,0.000000,5003.589844,5029.743652,4626.666504,4798.461426,4942.563965,1023.000000,3.000000,64.000000,,,,0.000000,4.000000,4.000000,4.000000,4.000000,4.000000,100.000000,,,,,,,,,,,,,,,,,,,,,,,,,,,,,,,,,,,,,,,,,,,,,,,,,,,,,,,,,,,,,,,,,,,,
1708896304.168571,1708896304.168915,124.000000,0.000000,4969.230957,4988.717773,4674.871582,4786.666504,4935.384766,450.000000,3.000000,64.000000,,,,0.000000,4.000000,4.000000,4.000000,4.000000,4.000000,100.000000,,,,,,,,,,,,,,,,,,,,,,,,,,,,,,,,,,,,,,,,,,,,,,,,,,,,,,,,,,,,,,,,,,,,
1708896304.176386,1708896304.176830,125.000000,0.000000,4965.641113,4974.358887,4557.948730,4778.974121,4957.948730,450.000000,3.000000,64.000000,,,,0.000000,4.000000,4.000000,4.000000,4.000000,4.000000,100.000000,,,,,,,,,,,,,,,,,,,,,,,,,,,,,,,,,,,,,,,,,,,,36.143501,42.777332,26.945061,202.628510,55.192287,1533.542603,249.564011,48.641087,64.628822,40.274990,130.698944,107.998505,46.835659,142.049805,76.399384,64.593033,101.986404,33.092392,260.597412,103.900024,125.536728,117.892578,16.979408,234.710480,45.664383
1708896304.184201,1708896304.184544,126.000000,0.000000,4976.922852,5014.871582,4521.025879,4771.282227,4956.410156,450.000000,3.000000,64.000000,,,,0.000000,4.000000,4.000000,4.000000,4.000000,4.000000,100.000000,,,,,,,,,,,,,,,,,,,,,,,,,,,,,,,,,,,,,,,,,,,,,,,,,,,,,,,,,,,,,,,,,,,,
1708896304.192016,1708896304.192459,127.000000,0.000000,4982.563965,5005.641113,4599.487305,4700.000000,4926.153809,236.000000,3.000000,64.000000,,,,0.000000,4.000000,4.000000,4.000000,4.000000,4.000000,100.000000,,,,,,,,,,,,,,,,,,,,,,,,,,,,,,,,,,,,,,,,,,,,,,,,,,,,,,,,,,,,,,,,,,,,
1708896304.199830,1708896304.200174,0.000000,0.000000,4981.538574,4972.820313,4525.128418,4654.358887,4923.589844,450.000000,3.000000,64.000000,,,,0.000000,4.000000,4.000000,4.000000,4.000000,4.000000,100.000000,,,,,,,,,,,,,,,,,,,,,,,,,,,,,,,,,,,,,,,,,,,,,,,,,,,,,,,,,,,,,,,,,,,,
1708896304.207645,1708896304.208089,1.000000,0.000000,4977.436035,4994.358887,4497.436035,4731.282227,4926.666504,450.000000,3.000000,64.000000,,,,0.000000,4.000000,4.000000,4.000000,4.000000,4.000000,100.000000,,,,,,,,,,,,,,,,,,,,,,,,,,,,,,,,,,,,,,,,,,,,,,,,,,,,,,,,,,,,,,,,,,,,
1708896304.215460,1708896304.215803,2.000000,0.000000,4986.153809,4968.205078,4600.000000,4769.230957,4906.666504,1023.000000,3.000000,64.000000,,,,0.000000,4.000000,4.000000,4.000000,4.000000,4.000000,100.000000,,,,,,,,,,,,,,,,,,,,,,,,,,,,,,,,,,,,,,,,,,,,,,,,,,,,,,,,,,,,,,,,,,,,
1708896304.223275,1708896304.223718,3.000000,0.000000,5002.563965,4924.102539,4516.922852,4703.077148,4910.256348,450.000000,3.000000,64.000000,,,,0.000000,4.000000,4.000000,4.000000,4.000000,4.000000,100.000000,,,,,,,,,,,,,,,,,,,,,,,,,,,,,,,,,,,,,,,,,,,,,,,,,,,,,,,,,,,,,,,,,,,,
1708896304.231090,1708896304.231432,4.000000,0.000000,4992.307617,4967.692383,4455.384766,4704.102539,4920.000000,1023.000000,3.000000,64.000000,,,,0.000000,4.000000,4.000000,4.000000,4.000000,4.000000,100.000000,,,,,,,,,,,,,,,,,,,,,,,,,,,,,,,,,,,,,,,,,,,,,,,,,,,,,,,,,,,,,,,,,,,,
1708896304.238904,1708896304.239147,5.000000,0.000000,4936.922852,4962.051270,4571.282227,4747.692383,4887.692383,450.000000,3.000000,64.000000,,,,0.000000,4.000000,4.000000,4.000000,4.000000,4.000000,100.000000,,,,,,,,,,,,,,,,,,,,,,,,,,,,,,,,,,,,,,,,,,,,,,,,,,,,,,,,,,,,,,,,,,,,
1708896304.246719,1708896304.246862,6.000000,0.000000,4909.743652,4869.230957,4544.102539,4718.461426,4877.436035,301.000000,3.000000,64.000000,,,,0.000000,4.000000,4.000000,2.000000,4.000000,4.000000,83.333336,,,,,,,,,,,,,,,,,,,,,,,,,,,,,,,,,,,,,,,,,,,,,,,,,,,,,,,,,,,,,,,,,,,,
1708896304.254534,1708896304.254777,7.000000,0.000000,4944.615234,4880.000000,4432.307617,4672.307617,4906.666504,450.000000,3.000000,64.000000,,,,0.000000,4.000000,4.000000,2.000000,4.000000,4.000000,83.333336,,,,,,,,,,,,,,,,,,,,,,,,,,,,,,,,,,,,,,,,,,,,,,,,,,,,,,,,,,,,,,,,,,,,
1708896304.262349,1708896304.262491,8.000000,0.000000,4940.512695,4957.436035,4560.512695,4678.461426,4877.436035,450.000000,3.000000,64.000000,,,,0.000000,4.000000,4.000000,2.000000,4.000000,4.000000,83.333336,,,,,,,,,,,,,,,,,,,,,,,,,,,,,,,,,,,,,,,,,,,,,,,,,,,,,,,,,,,,,,,,,,,,
1708896304.270164,1708896304.270206,9.000000,0.000000,4894.358887,4932.307617,4675.897461,4706.153809,4822.563965,286.000000,3.000000,64.000000,,,,0.000000,4.000000,4.000000,2.000000,4.000000,4.000000,83.333336,,,,,,,,,,,,,,,,,,,,,,,,,,,,,,,,,,,,,,,,,,,,,,,,,,,,,,,,,,,,,,,,,,,,
1708896304.277978,1708896304.277920,10.000000,0.000000,4895.384766,4872.307617,4489.230957,4674.871582,4859.487305,450.000000,3.000000,64.000000,,,,0.000000,4.000000,4.000000,2.000000,4.000000,4.000000,83.333336,,,,,,,,,,,,,,,,,,,,,,,,,,,,,,,,,,,,,,,,,,,,,,,,,,,,,,,,,,,,,,,,,,,,
1708896304.285793,1708896304.285635,11.000000,0.000000,4922.563965,4924.615234,4372.307617,4630.769043,4898.461426,1023.000000,3.000000,64.000000,,,,0.000000,4.000000,4.000000,2.000000,4.000000,4.000000,83.333336,,,,,,,,,,,,,,,,,,,,,,,,,,,,,,,,,,,,,,,,,,,,,,,,,,,,,,,,,,,,,,,,,,,,
1708896304.293608,1708896304.293349,12.000000,0.000000,4889.743652,4988.717773,4550.256348,4656.922852,4833.846191,450.000000,3.000000,64.000000,,,,0.000000,4.000000,4.000000,2.000000,4.000000,4.000000,83.333336,,,,,,,,,,,,,,,,,,,,,,,,,,,,,,,,,,,,,,,,,,,,,,,,,,,,,,,,,,,,,,,,,,,,
1708896304.301423,1708896304.301265,13.000000,0.000000,4862.563965,4944.615234,4629.230957,4701.538574,4805.128418,450.000000,3.000000,64.000000,,,,0.000000,4.000000,4.000000,2.000000,4.000000,4.000000,83.333336,1.000000,0.000000,0.000000,0.000000,0.000000,0.000000,0.000000,,,,,,,,,,,,,,,,,,,,,,,,,,,,,,,,,,,,,58.639435,53.633595,38.200191,224.986771,53.556210,1469.806030,304.307465,78.977051,83.779785,38.680145,155.275986,134.872803,56.354053,154.829361,75.017860,101.554207,140.625198,47.268925,277.911377,96.940056,176.415070,171.939728,28.691751,248.104401,41.838402
1708896304.309237,1708896304.309180,14.000000,0.000000,4884.615234,4906.153809,4414.358887,4672.307617,4849.743652,450.000000,3.000000,64.000000,,,,0.000000,4.000000,4.000000,2.000000,4.000000,4.000000,83.333336,,,,,,,,,,,,,,,,,,,,,,,,,,,,,,,,,,,,,,,,,,,,,,,,,,,,,,,,,,,,,,,,,,,,
1708896304.317052,1708896304.317095,15.000000,0.000000,4882.563965,4971.794922,4351.794922,4650.769043,4829.743652,1023.000000,3.000000,64.000000,,,,0.000000,4.000000,4.000000,2.000000,4.000000,4.000000,83.333336,,,,,,,,,,,,,,,,,,,,,,,,,,,,,,,,,,,,,,,,,,,,,,,,,,,,,,,,,,,,,,,,,,,,
1708896304.324867,1708896304.325010,16.000000,0.000000,4858.461426,5031.794922,4565.128418,4702.051270,4763.589844,0.000000,3.000000,64.000000,,,,0.000000,4.000000,4.000000,2.000000,4.000000,4.000000,83.333336,,,,,,,,,,,,,,,,,,,,,,,,,,,,,,,,,,,,,,,,,,,,,,,,,,,,,,,,,,,,,,,,,,,,
1708896304.332682,1708896304.332926,17.000000,0.000000,4866.153809,5022.563965,4626.153809,4677.436035,4784.615234,0.000000,3.000000,64.000000,,,,0.000000,4.000000,4.000000,2.000000,4.000000,4.000000,83.333336,,,,,,,,,,,,,,,,,,,,,,,,,,,,,,,,,,,,,,,,,,,,,,,,,,,,,,,,,,,,,,,,,,,,
1708896304.340497,1708896304.340841,18.000000,0.000000,4870.256348,5006.666504,4449.230957,4600.512695,4825.128418,0.000000,3.000000,64.000000,,,,0.000000,4.000000,4.000000,2.000000,4.000000,4.000000,83.333336,,,,,,,,,,,,,,,,,,,,,,,,,,,,,,,,,,,,,,,,,,,,,,,,,,,,,,,,,,,,,,,,,,,,
1708896304.348311,1708896304.348756,19.000000,0.000000,4818.461426,5001.025879,4360.000000,4627.692383,4768.717773,0.000000,3.000000,64.000000,,,,0.000000,4.000000,4.000000,2.000000,4.000000,4.000000,83.333336,,,,,,,,,,,,,,,,,,,,,,,,,,,,,,,,,,,,,,,,,,,,,,,,,,,,,,,,,,,,,,,,,,,,
1708896304.356126,1708896304.356671,20.000000,0.000000,4775.897461,5000.512695,4424.615234,4652.820313,4732.307617,0.000000,3.000000,64.000000,,,,0.000000,4.000000,4.000000,2.000000,4.000000,4.000000,83.333336,,,,,,,,,,,,,,,,,,,,,,,,,,,,,,,,,,,,,,,,,,,,,,,,,,,,,,,,,,,,,,,,,,,,
1708896304.363941,1708896304.364587,21.000000,0.000000,4794.871582,5020.000000,4537.436035,4571.794922,4755.897461,0.000000,3.000000,64.000000,,,,0.000000,4.000000,4.000000,2.000000,4.000000,4.000000,83.333336,,,,,,,,,,,,,,,,,,,,,,,,,,,,,,,,,,,,,,,,,,,,,,,,,,,,,,,,,,,,,,,,,,,,
1708896304.371756,1708896304.372502,22.000000,0.000000,4836.410156,5034.358887,4570.769043,4563.077148,4770.256348,0.000000,3.000000,64.000000,,,,0.000000,4.000000,4.000000,2.000000,4.000000,4.000000,83.333336,,,,,,,,,,,,,,,,,,,,,,,,,,,,,,,,,,,,,,,,,,,,,,,,,,,,,,,,,,,,,,,,,,,,
1708896304.379571,1708896304.380217,23.000000,0.000000,4850.769043,4990.769043,4462.563965,4633.846191,4811.282227,0.000000,3.000000,64.000000,,,,0.000000,4.000000,4.000000,2.000000,4.000000,4.000000,83.333336,,,,,,,,,,,,,,,,,,,,,,,,,,,,,,,,,,,,,,,,,,,,,,,,,,,,,,,,,,,,,,,,,,,,
1708896304.387385,1708896304.387931,24.000000,0.000000,4848.205078,4978.461426,4379.487305,4596.410156,4822.563965,0.000000,3.000000,64.000000,,,,0.000000,4.000000,4.000000,2.000000,4.000000,4.000000,83.333336,,,,,,,,,,,,,,,,,,,,,,,,,,,,,,,,,,,,,,,,,,,,,,,,,,,,,,,,,,,,,,,,,,,,
1708896304.395200,1708896304.395846,25.000000,0.000000,4858.461426,5053.846191,4429.743652,4577.436035,4745.641113,0.000000,3.000000,64.000000,,,,0.000000,4.000000,4.000000,2.000000,4.000000,4.000000,83.333336,,,,,,,,,,,,,,,,,,,,,,,,,,,,,,,,,,,,,,,,,,,,,,,,,,,,,,,,,,,,,,,,,,,,
1708896304.403015,1708896304.403761,26.000000,0.000000,4843.589844,5074.871582,4502.563965,4648.717773,4739.487305,0.000000,3.000000,64.000000,,,,0.000000,4.000000,4.000000,2.000000,4.000000,4.000000,83.333336,,,,,,,,,,,,,,,,,,,,,,,,,,,,,,,,,,,,,,,,,,,,,,,,,,,,,,,,,,,,,,,,,,,,
1708896304.410830,1708896304.411677,27.000000,0.000000,4772.307617,4983.077148,4538.461426,4602.051270,4789.230957,0.000000,3.000000,64.000000,,,,0.000000,4.000000,4.000000,2.000000,4.000000,4.000000,83.333336,,,,,,,,,,,,,,,,,,,,,,,,,,,,,,,,,,,,,,,,,,,,,,,,,,,,,,,,,,,,,,,,,,,,
1708896304.418644,1708896304.419592,28.000000,0.000000,4745.128418,4936.922852,4516.410156,4491.794922,4746.666504,0.000000,3.000000,64.000000,,,,0.000000,4.000000,4.000000,2.000000,4.000000,4.000000,83.333336,,,,,,,,,,,,,,,,,,,,,,,,,,,,,,,,,,,,,,,,,,,,,,,,,,,,,,,,,,,,,,,,,,,,
1708896304.426459,1708896304.427507,29.000000,0.000000,4811.794922,4982.563965,4401.025879,4491.794922,4710.769043,0.000000,3.000000,64.000000,,,,0.000000,4.000000,4.000000,2.000000,4.000000,4.000000,83.333336,,,,,,,,,,,,,,,,,,,,,,,,,,,,,,,,,,,,,,,,,,,,97.702927,62.358303,49.758251,221.350555,48.041382,1337.724243,329.602936,116.096848,102.052315,35.196064,193.970032,155.766922,71.862564,155.212769,69.056160,153.013077,168.143112,64.047943,260.565765,81.054520,225.112045,212.864380,45.473942,229.660034,34.402180
1708896304.434274,1708896304.435222,30.000000,0.000000,4806.153809,4977.436035,4323.589844,4542.051270,4741.025879,0.000000,3.000000,64.000000,,,,0.000000,4.000000,4.000000,2.000000,4.000000,4.000000,83.333336,,,,,,,,,,,,,,,,,,,,,,,,,,,,,,,,,,,,,,,,,,,,,,,,,,,,,,,,,,,,,,,,,,,,
1708896304.442089,1708896304.443138,31.000000,0.000000,4706.153809,4909.743652,4350.769043,4560.512695,4730.769043,0.000000,3.000000,64.000000,,,,0.000000,4.000000,4.000000,2.000000,4.000000,4.000000,83.333336,,,,,,,,,,,,,,,,,,,,,,,,,,,,,,,,,,,,,,,,,,,,,,,,,,,,,,,,,,,,,,,,,,,,
1708896304.449904,1708896304.450853,32.000000,0.000000,4711.794922,4887.179688,4438.974121,4573.846191,4709.743652,0.000000,3.000000,64.000000,,,,0.000000,4.000000,4.000000,2.000000,4.000000,4.000000,83.333336,,,,,,,,,,,,,,,,,,,,,,,,,,,,,,,,,,,,,,,,,,,,,,,,,,,,,,,,,,,,,,,,,,,,
1708896304.457718,1708896304.458768,33.000000,0.000000,4785.641113,4899.487305,4514.358887,4568.205078,4710.769043,0.000000,3.000000,64.000000,,,,0.000000,4.000000,4.000000,2.000000,4.000000,4.000000,83.333336,,,,,,,,,,,,,,,,,,,,,,,,,,,,,,,,,,,,,,,,,,,,,,,,,,,,,,,,,,,,,,,,,,,,
1708896304.465533,1708896304.466482,34.000000,0.000000,4750.769043,4872.820313,4557.948730,4554.871582,4700.512695,0.000000,3.000000,64.000000,,,,0.000000,4.000000,4.000000,2.000000,4.000000,4.000000,83.333336,,,,,,,,,,,,,,,,,,,,,,,,,,,,,,,,,,,,,,,,,,,,,,,,,,,,,,,,,,,,,,,,,,,,
1708896304.473348,1708896304.474397,35.000000,0.000000,4710.769043,4802.051270,4531.282227,4552.307617,4700.000000,0.000000,3.000000,64.000000,,,,0.000000,4.000000,4.000000,2.000000,4.000000,4.000000,83.333336,,,,,,,,,,,,,,,,,,,,,,,,,,,,,,,,,,,,,,,,,,,,,,,,,,,,,,,,,,,,,,,,,,,,
1708896304.481163,1708896304.482112,36.000000,0.000000,4755.897461,4736.922852,4462.051270,4530.769043,4687.179688,0.000000,3.000000,64.000000,,,,0.000000,4.000000,4.000000,2.000000,4.000000,4.000000,83.333336,,,,,,,,,,,,,,,,,,,,,,,,,,,,,,,,,,,,,,,,,,,,,,,,,,,,,,,,,,,,,,,,,,,,
1708896304.488978,1708896304.490027,37.000000,0.000000,4762.051270,4648.205078,4409.743652,4521.538574,4682.051270,0.000000,3.000000,64.000000,,,,0.000000,4.000000,4.000000,2.000000,4.000000,4.000000,83.333336,,,,,,,,,,,,,,,,,,,,,,,,,,,,,,,,,,,,,,,,,,,,,,,,,,,,,,,,,,,,,,,,,,,,
1708896304.496792,1708896304.497742,38.000000,0.000000,4694.871582,4555.384766,4390.769043,4527.179688,4713.333496,0.000000,3.000000,64.000000,,,,0.000000,4.000000,4.000000,2.000000,4.000000,4.000000,83.333336,,,,,,,,,,,,,,,,,,,,,,,,,,,,,,,,,,,,,,,,,,,,,,,,,,,,,,,,,,,,,,,,,,,,
1708896304.504607,1708896304.505657,39.000000,0.000000,4666.153809,4483.077148,4357.948730,4529.743652,4726.153809,0.000000,3.000000,64.000000,,,,0.000000,4.000000,4.000000,2.000000,4.000000,4.000000,83.333336,,,,,,,,,,,,,,,,,,,,,,,,,,,,,,,,,,,,,,,,,,,,,,,,,,,,,,,,,,,,,,,,,,,,
1708896304.512422,1708896304.513372,40.000000,0.000000,4678.461426,4402.563965,4326.666504,4536.922852,4710.769043,0.000000,3.000000,64.000000,,,,0.000000,4.000000,4.000000,2.000000,4.000000,4.000000,83.333336,,,,,,,,,,,,,,,,,,,,,,,,,,,,,,,,,,,,,,,,,,,,,,,,,,,,,,,,,,,,,,,,,,,,
1708896304.520237,1708896304.521287,41.000000,0.000000,4663.077148,4303.077148,4344.615234,4546.666504,4705.128418,0.000000,3.000000,64.000000,,,,0.000000,4.000000,4.000000,2.000000,4.000000,4.000000,83.333336,,,,,,,,,,,,,,,,,,,,,,,,,,,,,,,,,,,,,,,,,,,,,,,,,,,,,,,,,,,,,,,,,,,,
1708896304.528052,1708896304.529002,42.000000,0.000000,4634.871582,4236.922852,4363.077148,4538.461426,4711.282227,0.000000,3.000000,64.000000,,,,0.000000,4.000000,4.000000,2.000000,4.000000,4.000000,83.333336,,,,,,,,,,,,,,,,,,,,,,,,,,,,,,,,,,,,,,,,,,,,,,,,,,,,,,,,,,,,,,,,,,,,
1708896304.535866,1708896304.536917,43.000000,0.000000,4645.128418,4176.410156,4361.538574,4513.846191,4702.051270,0.000000,3.000000,64.000000,,,,0.000000,4.000000,4.000000,2.000000,4.000000,4.000000,83.333336,,,,,,,,,,,,,,,,,,,,,,,,,,,,,,,,,,,,,,,,,,,,,,,,,,,,,,,,,,,,,,,,,,,,
1708896304.543681,1708896304.544632,44.000000,0.000000,4642.563965,4100.000000,4347.179688,4513.333496,4679.487305,0.000000,3.000000,64.000000,,,,0.000000,4.000000,4.000000,2.000000,4.000000,4.000000,83.333336,,,,,,,,,,,,,,,,,,,,,,,,,,,,,,,,,,,,,,,,,,,,,,,,,,,,,,,,,,,,,,,,,,,,
1708896304.551496,1708896304.552547,45.000000,0.000000,4641.025879,4045.641113,4347.179688,4524.102539,4677.948730,0.000000,3.000000,64.000000,,,,0.000000,4.000000,4.000000,2.000000,4.000000,4.000000,83.333336,,,,,,,,,,,,,,,,,,,,,,,,,,,,,,,,,,,,,,,,,,,,136.870270,66.398125,58.083317,193.574905,40.582260,1185.852295,315.406128,148.461472,114.872833,31.281696,236.171204,161.710526,88.890961,144.956543,61.911488,203.353241,175.176743,78.242867,215.625580,62.009361,252.503998,226.862930,63.783478,186.805573,25.888523
1708896304.559311,1708896304.560261,46.000000,0.000000,4673.333496,3977.435791,4356.922852,4507.692383,4686.153809,0.000000,3.000000,64.000000,,,,0.000000,4.000000,4.000000,2.000000,4.000000,4.000000,83.333336,,,,,,,,,,,,,,,,,,,,,,,,,,,,,,,,,,,,,,,,,,,,,,,,,,,,,,,,,,,,,,,,,,,,
1708896304.567125,1708896304.568177,47.000000,0.000000,4663.077148,3870.256348,4343.589844,4507.692383,4654.871582,0.000000,3.000000,64.000000,,,,0.000000,4.000000,4.000000,2.000000,4.000000,4.000000,83.333336,,,,,,,,,,,,,,,,,,,,,,,,,,,,,,,,,,,,,,,,,,,,,,,,,,,,,,,,,,,,,,,,,,,,
1708896304.574940,1708896304.576092,48.000000,0.000000,4623.589844,3781.538574,4318.974121,4514.358887,4623.589844,0.000000,3.000000,64.000000,,,,0.000000,4.000000,4.000000,2.000000,4.000000,4.000000,83.333336,,,,,,,,,,,,,,,,,,,,,,,,,,,,,,,,,,,,,,,,,,,,,,,,,,,,,,,,,,,,,,,,,,,,
1708896304.582755,1708896304.584007,49.000000,0.000000,4642.563965,3727.179443,4324.615234,4501.538574,4622.563965,0.000000,3.000000,64.000000,,,,0.000000,4.000000,4.000000,2.000000,4.000000,4.000000,83.333336,,,,,,,,,,,,,,,,,,,,,,,,,,,,,,,,,,,,,,,,,,,,,,,,,,,,,,,,,,,,,,,,,,,,
1708896304.590570,1708896304.591722,50.000000,0.000000,4669.743652,3611.281982,4333.333496,4489.743652,4635.384766,0.000000,3.000000,64.000000,,,,0.000000,4.000000,4.000000,2.000000,4.000000,4.000000,83.333336,,,,,,,,,,,,,,,,,,,,,,,,,,,,,,,,,,,,,,,,,,,,,,,,,,,,,,,,,,,,,,,,,,,,
1708896304.598385,1708896304.599437,51.000000,0.000000,4650.769043,3528.205078,4336.410156,4473.846191,4653.846191,0.000000,3.000000,64.000000,,,,0.000000,4.000000,4.000000,2.000000,4.000000,4.000000,83.333336,,,,,,,,,,,,,,,,,,,,,,,,,,,,,,,,,,,,,,,,,,,,,,,,,,,,,,,,,,,,,,,,,,,,
1708896304.606199,1708896304.607152,52.000000,0.000000,4654.358887,3495.384521,4337.948730,4455.897461,4674.871582,0.000000,3.000000,64.000000,,,,0.000000,4.000000,4.000000,2.000000,4.000000,4.000000,83.333336,,,,,,,,,,,,,,,,,,,,,,,,,,,,,,,,,,,,,,,,,,,,,,,,,,,,,,,,,,,,,,,,,,,,
1708896304.614014,1708896304.614867,53.000000,0.000000,4656.922852,3413.333252,4343.589844,4460.000000,4686.153809,0.000000,3.000000,64.000000,,,,0.000000,4.000000,4.000000,2.000000,4.000000,4.000000,83.333336,,,,,,,,,,,,,,,,,,,,,,,,,,,,,,,,,,,,,,,,,,,,,,,,,,,,,,,,,,,,,,,,,,,,
1708896304.621829,1708896304.622581,54.000000,0.000000,4647.179688,3316.410156,4338.461426,4460.000000,4688.717773,0.000000,3.000000,64.000000,,,,0.000000,4.000000,4.000000,2.000000,4.000000,4.000000,83.333336,,,,,,,,,,,,,,,,,,,,,,,,,,,,,,,,,,,,,,,,,,,,,,,,,,,,,,,,,,,,,,,,,,,,
1708896304.629644,1708896304.630496,55.000000,0.000000,4627.179688,3257.435791,4330.256348,4433.333496,4713.333496,0.000000,3.000000,64.000000,,,,0.000000,4.000000,4.000000,2.000000,4.000000,4.000000,83.333336,,,,,,,,,,,,,,,,,,,,,,,,,,,,,,,,,,,,,,,,,,,,,,,,,,,,,,,,,,,,,,,,,,,,
1708896304.637458,1708896304.638210,56.000000,0.000000,4609.743652,3277.435791,4318.461426,4450.256348,4680.000000,0.000000,3.000000,64.000000,,,,0.000000,4.000000,4.000000,2.000000,4.000000,4.000000,83.333336,,,,,,,,,,,,,,,,,,,,,,,,,,,,,,,,,,,,,,,,,,,,,,,,,,,,,,,,,,,,,,,,,,,,
1708896304.645273,1708896304.645925,57.000000,0.000000,4664.102539,3181.025635,4315.897461,4463.077148,4633.333496,0.000000,3.000000,64.000000,,,,0.000000,4.000000,4.000000,2.000000,4.000000,4.000000,83.333336,,,,,,,,,,,,,,,,,,,,,,,,,,,,,,,,,,,,,,,,,,,,,,,,,,,,,,,,,,,,,,,,,,,,
1708896304.653088,1708896304.653640,58.000000,0.000000,4681.538574,3138.461426,4353.846191,4437.436035,4643.077148,0.000000,3.000000,64.000000,,,,0.000000,4.000000,4.000000,2.000000,4.000000,4.000000,83.333336,,,,,,,,,,,,,,,,,,,,,,,,,,,,,,,,,,,,,,,,,,,,,,,,,,,,,,,,,,,,,,,,,,,,
1708896304.660903,1708896304.661555,59.000000,0.000000,4623.589844,3275.384521,4401.538574,4380.000000,4613.333496,0.000000,3.000000,64.000000,,,,0.000000,4.000000,4.000000,2.000000,4.000000,4.000000,83.333336,,,,,,,,,,,,,,,,,,,,,,,,,,,,,,,,,,,,,,,,,,,,,,,,,,,,,,,,,,,,,,,,,,,,
1708896304.668718,1708896304.669470,60.000000,0.000000,4620.512695,3237.948730,4464.102539,4345.128418,4594.358887,0.000000,3.000000,64.000000,,,,0.000000,4.000000,4.000000,2.000000,4.000000,4.000000,83.333336,,,,,,,,,,,,,,,,,,,,,,,,,,,,,,,,,,,,,,,,,,,,,,,,,,,,,,,,,,,,,,,,,,,,
1708896304.676532,1708896304.677185,61.000000,0.000000,4606.666504,3138.461426,4515.897461,4427.692383,4608.717773,0.000000,3.000000,64.000000,,,,0.000000,4.000000,4.000000,2.000000,4.000000,4.000000,83.333336,,,,,,,,,,,,,,,,,,,,,,,,,,,,,,,,,,,,,,,,,,,,184.315872,65.076729,60.799698,150.943878,33.031219,1095.259399,266.484467,164.463928,118.115974,27.920813,277.037048,149.450516,101.990547,128.123932,56.788467,254.207947,159.084656,85.004517,158.357742,45.238537,265.792542,209.119644,78.221489,134.136047,18.620935
1708896304.684347,1708896304.684899,62.000000,0.000000,4544.615234,3213.846191,4505.128418,4468.717773,4578.974121,0.000000,3.000000,64.000000,,,,0.000000,4.000000,4.000000,2.000000,4.000000,4.000000,83.333336,,,,,,,,,,,,,,,,,,,,,,,,,,,,,,,,,,,,,,,,,,,,,,,,,,,,,,,,,,,,,,,,,,,,
1708896304.692162,1708896304.692614,63.000000,0.000000,4555.897461,3130.256348,4407.692383,4392.820313,4548.205078,0.000000,3.000000,64.000000,,,,0.000000,4.000000,4.000000,2.000000,4.000000,4.000000,83.333336,,,,,,,,,,,,,,,,,,,,,,,,,,,,,,,,,,,,,,,,,,,,,,,,,,,,,,,,,,,,,,,,,,,,
1708896304.699977,1708896304.700328,64.000000,0.000000,4573.333496,2967.179443,4323.077148,4385.128418,4564.102539,450.000000,3.000000,64.000000,,,,0.000000,4.000000,4.000000,2.000000,4.000000,4.000000,83.333336,,,,,,,,,,,,,,,,,,,,,,,,,,,,,,,,,,,,,,,,,,,,,,,,,,,,,,,,,,,,,,,,,,,,
1708896304.707791,1708896304.708244,65.000000,0.000000,4565.641113,3096.923096,4277.436035,4422.051270,4536.410156,450.000000,3.000000,64.000000,,,,0.000000,4.000000,4.000000,2.000000,4.000000,4.000000,83.333336,,,,,,,,,,,,,,,,,,,,,,,,,,,,,,,,,,,,,,,,,,,,,,,,,,,,,,,,,,,,,,,,,,,,
1708896304.715606,1708896304.716159,66.000000,0.000000,4620.512695,3052.820557,4280.512695,4380.000000,4578.974121,1023.000000,3.000000,64.000000,,,,0.000000,4.000000,4.000000,2.000000,4.000000,4.000000,83.333336,,,,,,,,,,,,,,,,,,,,,,,,,,,,,,,,,,,,,,,,,,,,,,,,,,,,,,,,,,,,,,,,,,,,
1708896304.723421,1708896304.724074,67.000000,0.000000,4580.000000,2978.974365,4404.102539,4379.487305,4676.410156,450.000000,3.000000,64.000000,,,,0.000000,4.000000,4.000000,2.000000,4.000000,4.000000,83.333336,,,,,,,,,,,,,,,,,,,,,,,,,,,,,,,,,,,,,,,,,,,,,,,,,,,,,,,,,,,,,,,,,,,,
1708896304.731236,1708896304.731989,68.000000,0.000000,4500.512695,3255.897461,4520.512695,4394.871582,4598.974121,61.000000,3.000000,64.000000,,,,0.000000,4.000000,1.000000,2.000000,4.000000,4.000000,58.333332,,,,,,,,,,,,,,,,,,,,,,,,,,,,,,,,,,,,,,,,,,,,,,,,,,,,,,,,,,,,,,,,,,,,
1708896304.739051,1708896304.739905,69.000000,0.000000,4591.794922,3176.923096,4473.333496,4346.153809,4546.666504,450.000000,3.000000,64.000000,,,,0.000000,4.000000,1.000000,2.000000,4.000000,4.000000,58.333332,,,,,,,,,,,,,,,,,,,,,,,,,,,,,,,,,,,,,,,,,,,,,,,,,,,,,,,,,,,,,,,,,,,,
1708896304.746865,1708896304.747819,70.000000,0.000000,4621.025879,2913.333252,4392.820313,4383.077148,4582.051270,80.000000,3.000000,64.000000,,,,0.000000,4.000000,1.000000,1.000000,4.000000,4.000000,50.000000,,,,,,,,,,,,,,,,,,,,,,,,,,,,,,,,,,,,,,,,,,,,,,,,,,,,,,,,,,,,,,,,,,,,
1708896304.754680,1708896304.755735,71.000000,0.000000,4531.794922,3090.769287,4350.256348,4433.333496,4522.563965,450.000000,3.000000,64.000000,,,,0.000000,4.000000,1.000000,1.000000,4.000000,4.000000,50.000000,,,,,,,,,,,,,,,,,,,,,,,,,,,,,,,,,,,,,,,,,,,,,,,,,,,,,,,,,,,,,,,,,,,,
1708896304.762495,1708896304.763650,72.000000,0.000000,4562.051270,3101.025635,4315.384766,4392.820313,4567.179688,450.000000,3.000000,64.000000,,,,0.000000,4.000000,1.000000,1.000000,4.000000,4.000000,50.000000,,,,,,,,,,,,,,,,,,,,,,,,,,,,,,,,,,,,,,,,,,,,,,,,,,,,,,,,,,,,,,,,,,,,
1708896304.770310,1708896304.771565,73.000000,0.000000,4586.153809,2956.923096,4324.615234,4404.615234,4681.538574,36.000000,3.000000,64.000000,,,,0.000000,4.000000,1.000000,1.000000,1.000000,4.000000,25.000000,,,,,,,,,,,,,,,,,,,,,,,,,,,,,,,,,,,,,,,,,,,,,,,,,,,,,,,,,,,,,,,,,,,,
1708896304.778124,1708896304.779280,74.000000,0.000000,4542.051270,3195.897461,4387.692383,4410.769043,4585.128418,450.000000,3.000000,64.000000,,,,0.000000,4.000000,1.000000,1.000000,1.000000,4.000000,25.000000,,,,,,,,,,,,,,,,,,,,,,,,,,,,,,,,,,,,,,,,,,,,,,,,,,,,,,,,,,,,,,,,,,,,
1708896304.785939,1708896304.787195,75.000000,0.000000,4604.102539,3232.307617,4465.128418,4342.563965,4525.128418,207.000000,3.000000,64.000000,,,,0.000000,4.000000,1.000000,1.000000,1.000000,2.000000,25.000000,,,,,,,,,,,,,,,,,,,,,,,,,,,,,,,,,,,,,,,,,,,,,,,,,,,,,,,,,,,,,,,,,,,,
1708896304.793754,1708896304.794910,76.000000,0.000000,4635.897461,3018.974365,4488.205078,4392.820313,4596.410156,450.000000,3.000000,64.000000,,,,0.000000,4.000000,1.000000,1.000000,1.000000,2.000000,25.000000,,,,,,,,,,,,,,,,,,,,,,,,,,,,,,,,,,,,,,,,,,,,,,,,,,,,,,,,,,,,,,,,,,,,
1708896304.801569,1708896304.802825,77.000000,0.000000,4546.153809,3125.128174,4418.461426,4492.820313,4568.205078,450.000000,3.000000,64.000000,,,,0.000000,4.000000,1.000000,1.000000,1.000000,2.000000,25.000000,1.000000,0.000000,0.000000,0.000000,0.000000,0.000000,0.000000,,,,,,,,,,,,,,,,,,,,,,,,,,,,,,,,,,,,,212.130402,59.116215,57.283127,105.645187,26.410168,1046.772827,197.178238,158.503464,109.903595,25.215530,297.720490,122.038155,106.356659,108.966637,54.865425,278.839691,125.300606,82.096710,104.889015,33.507988,250.687012,165.723740,84.048767,86.398285,13.702535
1708896304.809384,1708896304.810540,78.000000,0.000000,4500.512695,3145.128174,4335.384766,4426.153809,4584.615234,450.000000,3.000000,64.000000,,,,0.000000,4.000000,1.000000,1.000000,1.000000,2.000000,25.000000,,,,,,,,,,,,,,,,,,,,,,,,,,,,,,,,,,,,,,,,,,,,,,,,,,,,,,,,,,,,,,,,,,,,
1708896304.817198,1708896304.818456,79.000000,0.000000,4533.333496,3029.230713,4321.538574,4366.666504,4640.512695,207.000000,3.000000,64.000000,,,,0.000000,4.000000,1.000000,1.000000,1.000000,2.000000,25.000000,,,,,,,,,,,,,,,,,,,,,,,,,,,,,,,,,,,,,,,,,,,,,,,,,,,,,,,,,,,,,,,,,,,,
1708896304.825013,1708896304.826170,80.000000,0.000000,4596.922852,3112.820557,4274.871582,4407.179688,4565.641113,450.000000,3.000000,64.000000,,,,0.000000,4.000000,1.000000,1.000000,1.000000,2.000000,25.000000,,,,,,,,,,,,,,,,,,,,,,,,,,,,,,,,,,,,,,,,,,,,,,,,,,,,,,,,,,,,,,,,,,,,
1708896304.832828,1708896304.834086,81.000000,0.000000,4616.410156,3106.153809,4280.512695,4397.948730,4592.820313,450.000000,3.000000,64.000000,,,,0.000000,4.000000,1.000000,1.000000,1.000000,2.000000,25.000000,,,,,,,,,,,,,,,,,,,,,,,,,,,,,,,,,,,,,,,,,,,,,,,,,,,,,,,,,,,,,,,,,,,,
1708896304.840643,1708896304.841800,82.000000,0.000000,4551.794922,3140.000000,4388.205078,4363.077148,4675.384766,450.000000,3.000000,64.000000,,,,0.000000,4.000000,1.000000,1.000000,1.000000,2.000000,25.000000,,,,,,,,,,,,,,,,,,,,,,,,,,,,,,,,,,,,,,,,,,,,,,,,,,,,,,,,,,,,,,,,,,,,
1708896304.848457,1708896304.849715,83.000000,0.000000,4561.538574,3311.281982,4429.743652,4312.820313,4568.717773,207.000000,3.000000,64.000000,,,,0.000000,4.000000,1.000000,1.000000,1.000000,2.000000,25.000000,,,,,,,,,,,,,,,,,,,,,,,,,,,,,,,,,,,,,,,,,,,,,,,,,,,,,,,,,,,,,,,,,,,,
1708896304.856272,1708896304.857430,84.000000,0.000000,4627.179688,3155.384521,4392.820313,4275.897461,4509.230957,450.000000,3.000000,64.000000,,,,0.000000,4.000000,1.000000,1.000000,1.000000,2.000000,25.000000,,,,,,,,,,,,,,,,,,,,,,,,,,,,,,,,,,,,,,,,,,,,,,,,,,,,,,,,,,,,,,,,,,,,
1708896304.864087,1708896304.865345,85.000000,0.000000,4549.230957,3036.410156,4376.922852,4351.794922,4547.692383,450.000000,3.000000,64.000000,,,,0.000000,4.000000,1.000000,1.000000,1.000000,2.000000,25.000000,,,,,,,,,,,,,,,,,,,,,,,,,,,,,,,,,,,,,,,,,,,,,,,,,,,,,,,,,,,,,,,,,,,,
1708896304.871902,1708896304.873060,86.000000,0.000000,4470.769043,3238.974365,4305.641113,4388.717773,4501.025879,450.000000,3.000000,64.000000,,,,0.000000,4.000000,1.000000,1.000000,1.000000,2.000000,25.000000,,,,,,,,,,,,,,,,,,,,,,,,,,,,,,,,,,,,,,,,,,,,,,,,,,,,,,,,,,,,,,,,,,,,
1708896304.879717,1708896304.880975,87.000000,0.000000,4522.051270,3123.076904,4227.692383,4314.871582,4546.153809,207.000000,3.000000,64.000000,,,,0.000000,4.000000,1.000000,1.000000,1.000000,2.000000,25.000000,,,,,,,,,,,,,,,,,,,,,,,,,,,,,,,,,,,,,,,,,,,,,,,,,,,,,,,,,,,,,,,,,,,,
1708896304.887531,1708896304.888890,88.000000,0.000000,4510.256348,2999.487061,4313.846191,4345.128418,4662.051270,450.000000,3.000000,64.000000,,,,0.000000,4.000000,1.000000,1.000000,1.000000,2.000000,25.000000,,,,,,,,,,,,,,,,,,,,,,,,,,,,,,,,,,,,,,,,,,,,,,,,,,,,,,,,,,,,,,,,,,,,
1708896304.895346,1708896304.896805,89.000000,0.000000,4460.512695,3368.718018,4416.410156,4288.205078,4568.205078,450.000000,3.000000,64.000000,,,,0.000000,4.000000,1.000000,1.000000,1.000000,2.000000,25.000000,,,,,,,,,,,,,,,,,,,,,,,,,,,,,,,,,,,,,,,,,,,,,,,,,,,,,,,,,,,,,,,,,,,,
1708896304.903161,1708896304.904520,90.000000,0.000000,4518.974121,3432.307617,4358.461426,4163.077148,4451.282227,450.000000,3.000000,64.000000,,,,0.000000,4.000000,1.000000,1.000000,1.000000,2.000000,25.000000,,,,,,,,,,,,,,,,,,,,,,,,,,,,,,,,,,,,,,,,,,,,,,,,,,,,,,,,,,,,,,,,,,,,
1708896304.910976,1708896304.912435,91.000000,0.000000,4536.410156,3025.641113,4296.922852,4493.846191,4518.974121,207.000000,3.000000,64.000000,,,,0.000000,4.000000,1.000000,1.000000,1.000000,2.000000,25.000000,,,,,,,,,,,,,,,,,,,,,,,,,,,,,,,,,,,,,,,,,,,,,,,,,,,,,,,,,,,,,,,,,,,,
1708896304.918790,1708896304.920150,92.000000,0.000000,4441.025879,3038.974365,4311.794922,4861.025879,4561.538574,450.000000,3.000000,64.000000,,,,0.000000,4.000000,1.000000,1.000000,1.000000,2.000000,25.000000,,,,,,,,,,,,,,,,,,,,,,,,,,,,,,,,,,,,,,,,,,,,,,,,,,,,,,,,,,,,,,,,,,,,
1708896304.926605,1708896304.928065,93.000000,0.000000,4456.922852,3413.333252,4291.794922,4606.153809,4473.846191,450.000000,3.000000,64.000000,,,,0.000000,4.000000,1.000000,1.000000,1.000000,2.000000,25.000000,,,,,,,,,,,,,,,,,,,,,,,,,,,,,,,,,,,,,,,,,,,,219.876511,50.264503,48.716797,67.519371,20.841776,1024.976807,127.448265,133.159012,91.591843,22.777679,293.496338,88.532608,100.339157,90.392044,54.837593,277.902832,84.405510,70.606796,65.368271,26.390051,218.690094,111.540619,79.158073,52.281361,10.873363
1708896304.934420,1708896304.935780,94.000000,0.000000,4632.820313,3345.641113,4305.641113,4261.538574,4452.820313,450.000000,3.000000,64.000000,,,,0.000000,4.000000,1.000000,1.000000,1.000000,2.000000,25.000000,,,,,,,,,,,,,,,,,,,,,,,,,,,,,,,,,,,,,,,,,,,,,,,,,,,,,,,,,,,,,,,,,,,,
1708896304.942235,1708896304.943695,95.000000,0.000000,4643.077148,3034.358887,4367.179688,4323.589844,4524.102539,207.000000,3.000000,64.000000,,,,0.000000,4.000000,1.000000,1.000000,1.000000,2.000000,25.000000,,,,,,,,,,,,,,,,,,,,,,,,,,,,,,,,,,,,,,,,,,,,,,,,,,,,,,,,,,,,,,,,,,,,
1708896304.950050,1708896304.951409,96.000000,0.000000,4494.358887,3127.179443,4330.256348,4449.743652,4513.333496,450.000000,3.000000,64.000000,,,,0.000000,4.000000,1.000000,1.000000,1.000000,2.000000,25.000000,,,,,,,,,,,,,,,,,,,,,,,,,,,,,,,,,,,,,,,,,,,,,,,,,,,,,,,,,,,,,,,,,,,,
1708896304.957864,1708896304.959325,97.000000,0.000000,4548.205078,3246.666748,4232.307617,4425.128418,4516.410156,450.000000,3.000000,64.000000,,,,0.000000,4.000000,1.000000,1.000000,1.000000,2.000000,25.000000,,,,,,,,,,,,,,,,,,,,,,,,,,,,,,,,,,,,,,,,,,,,,,,,,,,,,,,,,,,,,,,,,,,,
1708896304.965679,1708896304.967240,98.000000,0.000000,4630.256348,3101.538574,4269.743652,4386.666504,4662.563965,450.000000,3.000000,64.000000,,,,0.000000,4.000000,1.000000,1.000000,1.000000,2.000000,25.000000,,,,,,,,,,,,,,,,,,,,,,,,,,,,,,,,,,,,,,,,,,,,,,,,,,,,,,,,,,,,,,,,,,,,
1708896304.973494,1708896304.974955,99.000000,0.000000,4547.692383,3197.948730,4351.282227,4353.846191,4710.256348,207.000000,3.000000,64.000000,,,,0.000000,4.000000,1.000000,1.000000,1.000000,2.000000,25.000000,,,,,,,,,,,,,,,,,,,,,,,,,,,,,,,,,,,,,,,,,,,,,,,,,,,,,,,,,,,,,,,,,,,,
1708896304.981309,1708896304.982871,100.000000,0.000000,4612.307617,3392.307617,4375.897461,4310.769043,4604.102539,450.000000,3.000000,64.000000,,,,0.000000,4.000000,1.000000,1.000000,1.000000,2.000000,25.000000,,,,,,,,,,,,,,,,,,,,,,,,,,,,,,,,,,,,,,,,,,,,,,,,,,,,,,,,,,,,,,,,,,,,
1708896304.989123,1708896304.990586,101.000000,0.000000,4741.025879,3329.743652,4430.769043,4333.333496,4604.615234,450.000000,3.000000,64.000000,,,,0.000000,4.000000,1.000000,1.000000,1.000000,2.000000,25.000000,,,,,,,,,,,,,,,,,,,,,,,,,,,,,,,,,,,,,,,,,,,,,,,,,,,,,,,,,,,,,,,,,,,,
1708896304.996938,1708896304.998300,102.000000,0.000000,4661.538574,3294.358887,4487.692383,4386.666504,4666.153809,450.000000,3.000000,64.000000,,,,0.000000,4.000000,1.000000,1.000000,1.000000,2.000000,25.000000,,,,,,,,,,,,,,,,,,,,,,,,,,,,,,,,,,,,,,,,,,,,,,,,,,,,,,,,,,,,,,,,,,,,
1708896305.004753,1708896305.006015,103.000000,0.000000,4612.307617,3318.974365,4457.948730,4404.615234,4644.102539,207.000000,3.000000,64.000000,,,,0.000000,4.000000,1.000000,1.000000,1.000000,2.000000,25.000000,,,,,,,,,,,,,,,,,,,,,,,,,,,,,,,,,,,,,,,,,,,,,,,,,,,,,,,,,,,,,,,,,,,,
1708896305.012568,1708896305.013729,104.000000,0.000000,4686.153809,3268.718018,4398.974121,4437.436035,4621.538574,450.000000,3.000000,64.000000,,,,0.000000,4.000000,1.000000,1.000000,1.000000,2.000000,25.000000,,,,,,,,,,,,,,,,,,,,,,,,,,,,,,,,,,,,,,,,,,,,,,,,,,,,,,,,,,,,,,,,,,,,
1708896305.020383,1708896305.021444,105.000000,0.000000,4702.051270,3241.025635,4362.051270,4466.153809,4614.871582,450.000000,3.000000,64.000000,,,,0.000000,4.000000,1.000000,1.000000,1.000000,2.000000,25.000000,,,,,,,,,,,,,,,,,,,,,,,,,,,,,,,,,,,,,,,,,,,,,,,,,,,,,,,,,,,,,,,,,,,,
1708896305.028197,1708896305.029158,106.000000,0.000000,4668.717773,3259.487061,4322.563965,4411.794922,4553.846191,450.000000,3.000000,64.000000,,,,0.000000,4.000000,1.000000,1.000000,1.000000,2.000000,25.000000,,,,,,,,,,,,,,,,,,,,,,,,,,,,,,,,,,,,,,,,,,,,,,,,,,,,,,,,,,,,,,,,,,,,
1708896305.036012,1708896305.036873,107.000000,0.000000,4626.666504,3276.923096,4293.846191,4376.922852,4529.230957,207.000000,3.000000,64.000000,,,,0.000000,4.000000,1.000000,1.000000,1.000000,2.000000,25.000000,,,,,,,,,,,,,,,,,,,,,,,,,,,,,,,,,,,,,,,,,,,,,,,,,,,,,,,,,,,,,,,,,,,,
1708896305.043827,1708896305.044587,108.000000,0.000000,4565.128418,3215.384521,4284.615234,4412.820313,4623.589844,450.000000,3.000000,64.000000,,,,0.000000,4.000000,1.000000,1.000000,1.000000,2.000000,25.000000,,,,,,,,,,,,,,,,,,,,,,,,,,,,,,,,,,,,,,,,,,,,,,,,,,,,,,,,,,,,,,,,,,,,
1708896305.051642,1708896305.052302,109.000000,0.000000,4565.128418,3183.076904,4268.717773,4413.333496,4668.717773,450.000000,3.000000,64.000000,,,,0.000000,4.000000,1.000000,1.000000,1.000000,2.000000,25.000000,,,,,,,,,,,,,,,,,,,,,,,,,,,,,,,,,,,,,,,,,,,,198.496735,40.575504,37.468620,40.878494,16.116951,929.107666,73.340691,97.331413,67.803802,20.919872,259.851318,59.061390,87.592171,74.601349,54.066521,243.288788,47.626011,54.068802,41.287811,21.779602,172.470016,63.460632,65.251648,32.405132,9.210598
1708896305.059456,1708896305.060016,110.000000,0.000000,4622.563965,3281.538574,4229.743652,4348.205078,4570.256348,450.000000,3.000000,64.000000,,,,0.000000,4.000000,1.000000,1.000000,1.000000,2.000000,25.000000,,,,,,,,,,,,,,,,,,,,,,,,,,,,,,,,,,,,,,,,,,,,,,,,,,,,,,,,,,,,,,,,,,,,
1708896305.067271,1708896305.067932,111.000000,0.000000,4642.563965,3244.102539,4263.077148,4309.743652,4552.820313,207.000000,3.000000,64.000000,,,,0.000000,4.000000,1.000000,1.000000,1.000000,2.000000,25.000000,,,,,,,,,,,,,,,,,,,,,,,,,,,,,,,,,,,,,,,,,,,,,,,,,,,,,,,,,,,,,,,,,,,,
1708896305.075086,1708896305.075847,112.000000,0.000000,4572.307617,3175.897461,4421.025879,4379.487305,4636.410156,450.000000,3.000000,64.000000,,,,0.000000,4.000000,1.000000,1.000000,1.000000,2.000000,25.000000,,,,,,,,,,,,,,,,,,,,,,,,,,,,,,,,,,,,,,,,,,,,,,,,,,,,,,,,,,,,,,,,,,,,
1708896305.082901,1708896305.083763,113.000000,0.000000,4490.256348,3359.487061,4478.974121,4442.051270,4572.820313,450.000000,3.000000,64.000000,,,,0.000000,4.000000,1.000000,1.000000,1.000000,2.000000,25.000000,,,,,,,,,,,,,,,,,,,,,,,,,,,,,,,,,,,,,,,,,,,,,,,,,,,,,,,,,,,,,,,,,,,,
1708896305.090716,1708896305.091678,114.000000,0.000000,4505.641113,3248.718018,4307.692383,4353.333496,4496.410156,450.000000,3.000000,64.000000,,,,0.000000,4.000000,1.000000,1.000000,1.000000,2.000000,25.000000,,,,,,,,,,,,,,,,,,,,,,,,,,,,,,,,,,,,,,,,,,,,,,,,,,,,,,,,,,,,,,,,,,,,
1708896305.098530,1708896305.099392,115.000000,0.000000,4480.512695,2937.948730,4237.948730,4310.256348,4574.358887,207.000000,3.000000,64.000000,,,,0.000000,4.000000,1.000000,1.000000,1.000000,2.000000,25.000000,,,,,,,,,,,,,,,,,,,,,,,,,,,,,,,,,,,,,,,,,,,,,,,,,,,,,,,,,,,,,,,,,,,,
1708896305.106345,1708896305.107107,116.000000,0.000000,4433.333496,3125.641113,4267.179688,4367.179688,4552.307617,450.000000,3.000000,64.000000,,,,0.000000,4.000000,1.000000,1.000000,1.000000,2.000000,25.000000,,,,,,,,,,,,,,,,,,,,,,,,,,,,,,,,,,,,,,,,,,,,,,,,,,,,,,,,,,,,,,,,,,,,
1708896305.114160,1708896305.115022,117.000000,0.000000,4565.128418,3311.281982,4253.333496,4314.358887,4469.743652,450.000000,3.000000,64.000000,,,,0.000000,4.000000,1.000000,1.000000,1.000000,2.000000,25.000000,,,,,,,,,,,,,,,,,,,,,,,,,,,,,,,,,,,,,,,,,,,,,,,,,,,,,,,,,,,,,,,,,,,,
1708896305.121975,1708896305.122937,118.000000,0.000000,4647.692383,3073.333252,4334.871582,4286.153809,4492.307617,450.000000,3.000000,64.000000,,,,0.000000,4.000000,1.000000,1.000000,1.000000,2.000000,25.000000,,,,,,,,,,,,,,,,,,,,,,,,,,,,,,,,,,,,,,,,,,,,,,,,,,,,,,,,,,,,,,,,,,,,
1708896305.129790,1708896305.130852,119.000000,0.000000,4473.846191,3014.358887,4434.871582,4407.179688,4464.615234,207.000000,3.000000,64.000000,,,,0.000000,4.000000,1.000000,1.000000,1.000000,2.000000,25.000000,,,,,,,,,,,,,,,,,,,,,,,,,,,,,,,,,,,,,,,,,,,,,,,,,,,,,,,,,,,,,,,,,,,,
1708896305.137604,1708896305.138567,120.000000,0.000000,4373.333496,3231.794922,4295.897461,4462.563965,4393.333496,450.000000,3.000000,64.000000,,,,0.000000,4.000000,1.000000,1.000000,1.000000,2.000000,25.000000,,,,,,,,,,,,,,,,,,,,,,,,,,,,,,,,,,,,,,,,,,,,,,,,,,,,,,,,,,,,,,,,,,,,
1708896305.145419,1708896305.146483,121.000000,0.000000,4496.922852,3206.153809,4145.641113,4371.794922,4452.307617,450.000000,3.000000,64.000000,,,,0.000000,4.000000,1.000000,1.000000,1.000000,2.000000,25.000000,,,,,,,,,,,,,,,,,,,,,,,,,,,,,,,,,,,,,,,,,,,,,,,,,,,,,,,,,,,,,,,,,,,,
1708896305.153234,1708896305.154198,122.000000,0.000000,4563.589844,2985.641113,4281.025879,4290.769043,4538.974121,450.000000,3.000000,64.000000,,,,0.000000,4.000000,1.000000,1.000000,1.000000,2.000000,25.000000,,,,,,,,,,,,,,,,,,,,,,,,,,,,,,,,,,,,,,,,,,,,,,,,,,,,,,,,,,,,,,,,,,,,
1708896305.161049,1708896305.162113,123.000000,0.000000,4438.461426,2974.358887,4427.179688,4367.179688,4480.000000,207.000000,3.000000,64.000000,,,,0.000000,4.000000,1.000000,1.000000,1.000000,2.000000,25.000000,,,,,,,,,,,,,,,,,,,,,,,,,,,,,,,,,,,,,,,,,,,,,,,,,,,,,,,,,,,,,,,,,,,,
1708896305.168863,1708896305.169828,124.000000,0.000000,4353.846191,3212.820557,4336.922852,4505.641113,4393.846191,450.000000,3.000000,64.000000,,,,0.000000,4.000000,1.000000,1.000000,1.000000,2.000000,25.000000,,,,,,,,,,,,,,,,,,,,,,,,,,,,,,,,,,,,,,,,,,,,,,,,,,,,,,,,,,,,,,,,,,,,
1708896305.176678,1708896305.177743,125.000000,0.000000,4467.179688,3286.153809,4183.077148,4450.256348,4421.538574,450.000000,3.000000,64.000000,,,,0.000000,4.000000,1.000000,1.000000,1.000000,2.000000,25.000000,,,,,,,,,,,,,,,,,,,,,,,,,,,,,,,,,,,,,,,,,,,,160.215134,31.621532,26.124720,24.674118,12.476006,770.136597,41.234787,62.729233,45.203663,21.776514,206.661652,40.029800,74.741364,63.334743,50.520874,191.196106,23.182968,37.109962,29.058563,18.580788,125.784294,32.662689,46.940651,21.999981,8.207127
1708896305.184493,1708896305.185458,126.000000,0.000000,4585.128418,3040.512939,4257.948730,4293.333496,4520.000000,450.000000,3.000000,64.000000,,,,0.000000,4.000000,1.000000,1.000000,1.000000,2.000000,25.000000,,,,,,,,,,,,,,,,,,,,,,,,,,,,,,,,,,,,,,,,,,,,,,,,,,,,,,,,,,,,,,,,,,,,
1708896305.192308,1708896305.193173,127.000000,0.000000,4535.897461,2997.435791,4432.307617,4350.769043,4536.922852,236.000000,3.000000,64.000000,,,,0.000000,4.000000,1.000000,1.000000,1.000000,2.000000,25.000000,,,,,,,,,,,,,,,,,,,,,,,,,,,,,,,,,,,,,,,,,,,,,,,,,,,,,,,,,,,,,,,,,,,,
1708896305.200123,1708896305.200887,0.000000,0.000000,4519.487305,3203.076904,4433.333496,4471.794922,4515.384766,450.000000,3.000000,64.000000,,,,0.000000,4.000000,1.000000,1.000000,1.000000,2.000000,25.000000,,,,,,,,,,,,,,,,,,,,,,,,,,,,,,,,,,,,,,,,,,,,,,,,,,,,,,,,,,,,,,,,,,,,
1708896305.207937,1708896305.208802,1.000000,0.000000,4651.794922,3157.435791,4308.717773,4413.846191,4580.000000,450.000000,3.000000,64.000000,,,,0.000000,4.000000,1.000000,1.000000,1.000000,2.000000,25.000000,,,,,,,,,,,,,,,,,,,,,,,,,,,,,,,,,,,,,,,,,,,,,,,,,,,,,,,,,,,,,,,,,,,,
1708896305.215752,1708896305.216517,2.000000,0.000000,4746.666504,2940.512939,4244.102539,4361.538574,4641.538574,1023.000000,3.000000,64.000000,,,,0.000000,4.000000,1.000000,1.000000,1.000000,2.000000,25.000000,,,,,,,,,,,,,,,,,,,,,,,,,,,,,,,,,,,,,,,,,,,,,,,,,,,,,,,,,,,,,,,,,,,,
1708896305.223567,1708896305.224432,3.000000,0.000000,4769.743652,2980.000000,4277.436035,4422.563965,4675.384766,450.000000,3.000000,64.000000,,,,0.000000,4.000000,1.000000,1.000000,1.000000,2.000000,25.000000,,,,,,,,,,,,,,,,,,,,,,,,,,,,,,,,,,,,,,,,,,,,,,,,,,,,,,,,,,,,,,,,,,,,
1708896305.231382,1708896305.232147,4.000000,0.000000,4846.666504,3066.666748,4334.358887,4447.692383,4725.641113,1023.000000,3.000000,64.000000,,,,0.000000,4.000000,4.000000,1.000000,1.000000,2.000000,33.333332,,,,,,,,,,,,,,,,,,,,,,,,,,,,,,,,,,,,,,,,,,,,,,,,,,,,,,,,,,,,,,,,,,,,
1708896305.239197,1708896305.240062,5.000000,0.000000,4889.743652,3007.179443,4373.846191,4417.948730,4762.563965,450.000000,3.000000,64.000000,,,,0.000000,4.000000,4.000000,1.000000,1.000000,2.000000,33.333332,,,,,,,,,,,,,,,,,,,,,,,,,,,,,,,,,,,,,,,,,,,,,,,,,,,,,,,,,,,,,,,,,,,,
1708896305.247011,1708896305.247777,6.000000,0.000000,4838.974121,2990.256348,4393.846191,4386.666504,4744.615234,224.000000,3.000000,64.000000,,,,0.000000,4.000000,4.000000,2.000000,1.000000,2.000000,41.666668,,,,,,,,,,,,,,,,,,,,,,,,,,,,,,,,,,,,,,,,,,,,,,,,,,,,,,,,,,,,,,,,,,,,
1708896305.254826,1708896305.255692,7.000000,0.000000,4811.794922,3004.615479,4401.538574,4346.153809,4740.512695,450.000000,3.000000,64.000000,,,,0.000000,4.000000,4.000000,2.000000,1.000000,2.000000,41.666668,,,,,,,,,,,,,,,,,,,,,,,,,,,,,,,,,,,,,,,,,,,,,,,,,,,,,,,,,,,,,,,,,,,,
1708896305.262641,1708896305.263406,8.000000,0.000000,4868.717773,2985.128174,4434.871582,4315.897461,4758.461426,450.000000,3.000000,64.000000,,,,0.000000,4.000000,4.000000,2.000000,1.000000,2.000000,41.666668,,,,,,,,,,,,,,,,,,,,,,,,,,,,,,,,,,,,,,,,,,,,,,,,,,,,,,,,,,,,,,,,,,,,
1708896305.270456,1708896305.271321,9.000000,0.000000,4884.102539,3025.641113,4463.589844,4312.820313,4741.538574,282.000000,3.000000,64.000000,,,,0.000000,4.000000,4.000000,2.000000,4.000000,2.000000,66.666664,,,,,,,,,,,,,,,,,,,,,,,,,,,,,,,,,,,,,,,,,,,,,,,,,,,,,,,,,,,,,,,,,,,,
1708896305.278271,1708896305.279036,10.000000,0.000000,4820.512695,3051.794922,4434.871582,4291.794922,4695.384766,450.000000,3.000000,64.000000,,,,0.000000,4.000000,4.000000,2.000000,4.000000,2.000000,66.666664,,,,,,,,,,,,,,,,,,,,,,,,,,,,,,,,,,,,,,,,,,,,,,,,,,,,,,,,,,,,,,,,,,,,
1708896305.286085,1708896305.286951,11.000000,0.000000,4775.384766,3056.410156,4427.692383,4292.820313,4695.384766,1023.000000,3.000000,64.000000,,,,0.000000,4.000000,4.000000,2.000000,4.000000,4.000000,83.333336,,,,,,,,,,,,,,,,,,,,,,,,,,,,,,,,,,,,,,,,,,,,,,,,,,,,,,,,,,,,,,,,,,,,
1708896305.293900,1708896305.294666,12.000000,0.000000,4780.512695,3109.230713,4437.436035,4258.461426,4695.384766,450.000000,3.000000,64.000000,,,,0.000000,4.000000,4.000000,2.000000,4.000000,4.000000,83.333336,,,,,,,,,,,,,,,,,,,,,,,,,,,,,,,,,,,,,,,,,,,,,,,,,,,,,,,,,,,,,,,,,,,,
1708896305.301715,1708896305.302581,13.000000,0.000000,4773.333496,3085.641113,4417.948730,4234.871582,4642.563965,450.000000,3.000000,64.000000,,,,0.000000,4.000000,4.000000,2.000000,4.000000,4.000000,83.333336,1.000000,0.000000,0.000000,0.000000,0.000000,0.000000,0.000000,,,,,,,,,,,,,,,,,,,,,,,,,,,,,,,,,,,,,116.245621,24.448074,17.122114,15.631885,10.733742,598.648987,28.561741,38.552460,29.700079,28.490145,145.334900,32.605465,67.743896,58.118176,44.289501,132.680695,14.065157,23.784992,25.511387,17.772285,86.051048,20.964405,29.745539,16.217392,8.183105
1708896305.309530,1708896305.310296,14.000000,0.000000,4692.820313,3077.435791,4420.000000,4316.410156,4613.846191,450.000000,3.000000,64.000000,,,,0.000000,4.000000,4.000000,2.000000,4.000000,4.000000,83.333336,,,,,,,,,,,,,,,,,,,,,,,,,,,,,,,,,,,,,,,,,,,,,,,,,,,,,,,,,,,,,,,,,,,,
1708896305.317344,1708896305.318111,15.000000,0.000000,4649.230957,3131.794922,4438.461426,4336.922852,4616.922852,1023.000000,3.000000,64.000000,,,,0.000000,4.000000,4.000000,2.000000,4.000000,4.000000,83.333336,,,,,,,,,,,,,,,,,,,,,,,,,,,,,,,,,,,,,,,,,,,,,,,,,,,,,,,,,,,,,,,,,,,,
1708896305.325159,1708896305.325825,16.000000,0.000000,4674.358887,3054.358887,4365.128418,4277.436035,4566.666504,0.000000,3.000000,64.000000,,,,0.000000,4.000000,4.000000,2.000000,4.000000,4.000000,83.333336,,,,,,,,,,,,,,,,,,,,,,,,,,,,,,,,,,,,,,,,,,,,,,,,,,,,,,,,,,,,,,,,,,,,
1708896305.332974,1708896305.333740,17.000000,0.000000,4633.333496,3031.281982,4269.743652,4329.743652,4494.358887,0.000000,3.000000,64.000000,,,,0.000000,4.000000,4.000000,2.000000,4.000000,4.000000,83.333336,,,,,,,,,,,,,,,,,,,,,,,,,,,,,,,,,,,,,,,,,,,,,,,,,,,,,,,,,,,,,,,,,,,,
1708896305.340789,1708896305.341454,18.000000,0.000000,4554.871582,3061.538574,4213.846191,4403.589844,4522.051270,0.000000,3.000000,64.000000,,,,0.000000,4.000000,4.000000,2.000000,4.000000,4.000000,83.333336,,,,,,,,,,,,,,,,,,,,,,,,,,,,,,,,,,,,,,,,,,,,,,,,,,,,,,,,,,,,,,,,,,,,
1708896305.348604,1708896305.349169,19.000000,0.000000,4513.333496,2950.256348,4207.179688,4345.641113,4585.641113,0.000000,3.000000,64.000000,,,,0.000000,4.000000,4.000000,2.000000,4.000000,4.000000,83.333336,,,,,,,,,,,,,,,,,,,,,,,,,,,,,,,,,,,,,,,,,,,,,,,,,,,,,,,,,,,,,,,,,,,,
1708896305.356418,1708896305.356884,20.000000,0.000000,4483.077148,3044.102539,4268.205078,4267.692383,4544.102539,0.000000,3.000000,64.000000,,,,0.000000,4.000000,4.000000,2.000000,4.000000,4.000000,83.333336,,,,,,,,,,,,,,,,,,,,,,,,,,,,,,,,,,,,,,,,,,,,,,,,,,,,,,,,,,,,,,,,,,,,
1708896305.364233,1708896305.364799,21.000000,0.000000,4470.256348,3423.589844,4341.538574,4238.974121,4447.692383,0.000000,3.000000,64.000000,,,,0.000000,4.000000,4.000000,2.000000,4.000000,4.000000,83.333336,,,,,,,,,,,,,,,,,,,,,,,,,,,,,,,,,,,,,,,,,,,,,,,,,,,,,,,,,,,,,,,,,,,,
1708896305.372048,1708896305.372514,22.000000,0.000000,4524.102539,3351.281982,4341.538574,4230.769043,4441.538574,0.000000,3.000000,64.000000,,,,0.000000,4.000000,4.000000,2.000000,4.000000,4.000000,83.333336,,,,,,,,,,,,,,,,,,,,,,,,,,,,,,,,,,,,,,,,,,,,,,,,,,,,,,,,,,,,,,,,,,,,
1708896305.379863,1708896305.380430,23.000000,0.000000,4496.922852,3002.051270,4271.794922,4311.282227,4467.692383,0.000000,3.000000,64.000000,,,,0.000000,4.000000,4.000000,2.000000,4.000000,4.000000,83.333336,,,,,,,,,,,,,,,,,,,,,,,,,,,,,,,,,,,,,,,,,,,,,,,,,,,,,,,,,,,,,,,,,,,,
1708896305.387678,1708896305.388345,24.000000,0.000000,4365.641113,3136.410156,4244.615234,4383.077148,4437.948730,0.000000,3.000000,64.000000,,,,0.000000,4.000000,4.000000,2.000000,4.000000,4.000000,83.333336,,,,,,,,,,,,,,,,,,,,,,,,,,,,,,,,,,,,,,,,,,,,,,,,,,,,,,,,,,,,,,,,,,,,
1708896305.395492,1708896305.396060,25.000000,0.000000,4343.077148,3475.897461,4354.871582,4313.333496,4394.871582,0.000000,3.000000,64.000000,,,,0.000000,4.000000,4.000000,2.000000,4.000000,4.000000,83.333336,,,,,,,,,,,,,,,,,,,,,,,,,,,,,,,,,,,,,,,,,,,,,,,,,,,,,,,,,,,,,,,,,,,,
1708896305.403307,1708896305.403774,26.000000,0.000000,4428.205078,3445.128174,4359.487305,4245.128418,4362.563965,0.000000,3.000000,64.000000,,,,0.000000,4.000000,4.000000,2.000000,4.000000,4.000000,83.333336,,,,,,,,,,,,,,,,,,,,,,,,,,,,,,,,,,,,,,,,,,,,,,,,,,,,,,,,,,,,,,,,,,,,
1708896305.411122,1708896305.411690,27.000000,0.000000,4398.974121,3123.589844,4162.051270,4252.820313,4431.282227,0.000000,3.000000,64.000000,,,,0.000000,4.000000,4.000000,2.000000,4.000000,4.000000,83.333336,,,,,,,,,,,,,,,,,,,,,,,,,,,,,,,,,,,,,,,,,,,,,,,,,,,,,,,,,,,,,,,,,,,,
1708896305.418937,1708896305.419606,28.000000,0.000000,4277.436035,3021.538574,4193.333496,4269.743652,4526.666504,0.000000,3.000000,64.000000,,,,0.000000,4.000000,4.000000,2.000000,4.000000,4.000000,83.333336,,,,,,,,,,,,,,,,,,,,,,,,,,,,,,,,,,,,,,,,,,,,,,,,,,,,,,,,,,,,,,,,,,,,
1708896305.426751,1708896305.427521,29.000000,0.000000,4288.717773,3186.666748,4366.666504,4305.641113,4404.615234,0.000000,3.000000,64.000000,,,,0.000000,4.000000,4.000000,2.000000,4.000000,4.000000,83.333336,,,,,,,,,,,,,,,,,,,,,,,,,,,,,,,,,,,,,,,,,,,,85.662987,19.593227,11.368753,11.546351,11.446940,391.722992,27.636362,28.149244,23.908348,43.182999,92.040405,33.763924,68.250351,58.824154,36.813225,84.195267,17.806736,16.362194,30.220573,20.563877,62.323708,21.939190,17.489674,13.051683,9.506832
1708896305.434566,1708896305.435235,30.000000,0.000000,4372.307617,3338.461426,4310.256348,4363.589844,4257.948730,0.000000,3.000000,64.000000,,,,0.000000,4.000000,4.000000,2.000000,4.000000,4.000000,83.333336,,,,,,,,,,,,,,,,,,,,,,,,,,,,,,,,,,,,,,,,,,,,,,,,,,,,,,,,,,,,,,,,,,,,
1708896305.442381,1708896305.442950,31.000000,0.000000,4321.538574,3458.461426,4302.563965,4364.615234,4339.487305,0.000000,3.000000,64.000000,,,,0.000000,4.000000,4.000000,2.000000,4.000000,4.000000,83.333336,,,,,,,,,,,,,,,,,,,,,,,,,,,,,,,,,,,,,,,,,,,,,,,,,,,,,,,,,,,,,,,,,,,,
1708896305.450196,1708896305.450665,32.000000,0.000000,4254.871582,3497.948730,4396.922852,4333.846191,4405.641113,0.000000,3.000000,64.000000,,,,0.000000,4.000000,4.000000,2.000000,4.000000,4.000000,83.333336,,,,,,,,,,,,,,,,,,,,,,,,,,,,,,,,,,,,,,,,,,,,,,,,,,,,,,,,,,,,,,,,,,,,
1708896305.458011,1708896305.458380,33.000000,0.000000,4352.307617,3438.974365,4260.000000,4271.794922,4329.230957,0.000000,3.000000,64.000000,,,,0.000000,4.000000,4.000000,2.000000,4.000000,4.000000,83.333336,,,,,,,,,,,,,,,,,,,,,,,,,,,,,,,,,,,,,,,,,,,,,,,,,,,,,,,,,,,,,,,,,,,,
1708896305.465825,1708896305.466094,34.000000,0.000000,4461.538574,3456.923096,4157.436035,4163.589844,4294.358887,0.000000,3.000000,64.000000,,,,0.000000,4.000000,4.000000,2.000000,4.000000,4.000000,83.333336,,,,,,,,,,,,,,,,,,,,,,,,,,,,,,,,,,,,,,,,,,,,,,,,,,,,,,,,,,,,,,,,,,,,
1708896305.473640,1708896305.474009,35.000000,0.000000,4408.205078,3379.487061,4180.512695,4182.563965,4348.205078,0.000000,3.000000,64.000000,,,,0.000000,4.000000,4.000000,2.000000,4.000000,4.000000,83.333336,,,,,,,,,,,,,,,,,,,,,,,,,,,,,,,,,,,,,,,,,,,,,,,,,,,,,,,,,,,,,,,,,,,,
1708896305.481455,1708896305.481924,36.000000,0.000000,4308.717773,3134.871826,4154.871582,4264.615234,4406.153809,0.000000,3.000000,64.000000,,,,0.000000,4.000000,4.000000,2.000000,4.000000,4.000000,83.333336,,,,,,,,,,,,,,,,,,,,,,,,,,,,,,,,,,,,,,,,,,,,,,,,,,,,,,,,,,,,,,,,,,,,
1708896305.489270,1708896305.489840,37.000000,0.000000,4273.846191,3097.435791,4212.307617,4231.282227,4416.922852,0.000000,3.000000,64.000000,,,,0.000000,4.000000,4.000000,2.000000,4.000000,4.000000,83.333336,,,,,,,,,,,,,,,,,,,,,,,,,,,,,,,,,,,,,,,,,,,,,,,,,,,,,,,,,,,,,,,,,,,,
1708896305.497085,1708896305.497755,38.000000,0.000000,4240.512695,3245.128174,4325.641113,4215.384766,4399.487305,0.000000,3.000000,64.000000,,,,0.000000,4.000000,4.000000,2.000000,4.000000,4.000000,83.333336,,,,,,,,,,,,,,,,,,,,,,,,,,,,,,,,,,,,,,,,,,,,,,,,,,,,,,,,,,,,,,,,,,,,
1708896305.504899,1708896305.505469,39.000000,0.000000,4229.743652,3308.718018,4305.128418,4294.358887,4348.205078,0.000000,3.000000,64.000000,,,,0.000000,4.000000,4.000000,2.000000,4.000000,4.000000,83.333336,,,,,,,,,,,,,,,,,,,,,,,,,,,,,,,,,,,,,,,,,,,,,,,,,,,,,,,,,,,,,,,,,,,,
1708896305.512714,1708896305.513183,40.000000,0.000000,4256.410156,3334.871826,4262.563965,4309.743652,4257.436035,0.000000,3.000000,64.000000,,,,0.000000,4.000000,4.000000,2.000000,4.000000,4.000000,83.333336,,,,,,,,,,,,,,,,,,,,,,,,,,,,,,,,,,,,,,,,,,,,,,,,,,,,,,,,,,,,,,,,,,,,
1708896305.520529,1708896305.521098,41.000000,0.000000,4251.794922,3371.794922,4315.384766,4324.615234,4218.974121,0.000000,3.000000,64.000000,,,,0.000000,4.000000,4.000000,2.000000,4.000000,4.000000,83.333336,,,,,,,,,,,,,,,,,,,,,,,,,,,,,,,,,,,,,,,,,,,,,,,,,,,,,,,,,,,,,,,,,,,,
1708896305.528344,1708896305.529013,42.000000,0.000000,4231.794922,3383.589844,4307.179688,4389.230957,4244.102539,0.000000,3.000000,64.000000,,,,0.000000,4.000000,4.000000,2.000000,4.000000,4.000000,83.333336,,,,,,,,,,,,,,,,,,,,,,,,,,,,,,,,,,,,,,,,,,,,,,,,,,,,,,,,,,,,,,,,,,,,
1708896305.536158,1708896305.536929,43.000000,0.000000,4220.000000,3446.666748,4285.128418,4371.282227,4243.589844,0.000000,3.000000,64.000000,,,,0.000000,4.000000,4.000000,2.000000,4.000000,4.000000,83.333336,,,,,,,,,,,,,,,,,,,,,,,,,,,,,,,,,,,,,,,,,,,,,,,,,,,,,,,,,,,,,,,,,,,,
1708896305.543973,1708896305.544844,44.000000,0.000000,4197.436035,3504.102539,4292.820313,4365.641113,4233.333496,0.000000,3.000000,64.000000,,,,0.000000,4.000000,4.000000,2.000000,4.000000,4.000000,83.333336,,,,,,,,,,,,,,,,,,,,,,,,,,,,,,,,,,,,,,,,,,,,,,,,,,,,,,,,,,,,,,,,,,,,
1708896305.551788,1708896305.552759,45.000000,0.000000,4193.333496,3520.512939,4328.717773,4409.743652,4261.025879,0.000000,3.000000,64.000000,,,,0.000000,4.000000,4.000000,2.000000,4.000000,4.000000,83.333336,,,,,,,,,,,,,,,,,,,,,,,,,,,,,,,,,,,,,,,,,,,,81.904427,17.343000,9.079258,11.304354,14.474744,227.133118,30.555616,28.401573,25.986191,65.401344,55.361610,38.922844,72.954391,63.095116,30.053202,54.053833,28.985262,14.586148,42.140163,27.044628,61.196526,27.461210,11.575540,12.222219,12.043213
1708896305.559603,1708896305.560474,46.000000,0.000000,4204.102539,3514.871826,4332.307617,4400.512695,4263.077148,0.000000,3.000000,64.000000,,,,0.000000,4.000000,4.000000,2.000000,4.000000,4.000000,83.333336,,,,,,,,,,,,,,,,,,,,,,,,,,,,,,,,,,,,,,,,,,,,,,,,,,,,,,,,,,,,,,,,,,,,
1708896305.567418,1708896305.568390,47.000000,0.000000,4206.666504,3508.205078,4332.307617,4357.436035,4276.410156,0.000000,3.000000,64.000000,,,,0.000000,4.000000,4.000000,2.000000,4.000000,4.000000,83.333336,,,,,,,,,,,,,,,,,,,,,,,,,,,,,,,,,,,,,,,,,,,,,,,,,,,,,,,,,,,,,,,,,,,,
1708896305.575232,1708896305.576305,48.000000,0.000000,4204.102539,3500.512939,4356.410156,4365.641113,4281.025879,0.000000,3.000000,64.000000,,,,0.000000,4.000000,4.000000,2.000000,4.000000,4.000000,83.333336,,,,,,,,,,,,,,,,,,,,,,,,,,,,,,,,,,,,,,,,,,,,,,,,,,,,,,,,,,,,,,,,,,,,
1708896305.583047,1708896305.584220,49.000000,0.000000,4191.794922,3454.871826,4317.436035,4375.897461,4253.846191,0.000000,3.000000,64.000000,,,,0.000000,4.000000,4.000000,2.000000,4.000000,4.000000,83.333336,,,,,,,,,,,,,,,,,,,,,,,,,,,,,,,,,,,,,,,,,,,,,,,,,,,,,,,,,,,,,,,,,,,,
1708896305.590862,1708896305.592135,50.000000,0.000000,4210.256348,3443.076904,4293.333496,4331.282227,4287.692383,0.000000,3.000000,64.000000,,,,0.000000,4.000000,4.000000,2.000000,4.000000,4.000000,83.333336,,,,,,,,,,,,,,,,,,,,,,,,,,,,,,,,,,,,,,,,,,,,,,,,,,,,,,,,,,,,,,,,,,,,
1708896305.598677,1708896305.600050,51.000000,0.000000,4226.666504,3488.718018,4348.717773,4294.358887,4340.000000,0.000000,3.000000,64.000000,,,,0.000000,4.000000,4.000000,2.000000,4.000000,4.000000,83.333336,,,,,,,,,,,,,,,,,,,,,,,,,,,,,,,,,,,,,,,,,,,,,,,,,,,,,,,,,,,,,,,,,,,,
1708896305.606491,1708896305.607765,52.000000,0.000000,4202.563965,3490.769287,4350.256348,4280.000000,4308.717773,0.000000,3.000000,64.000000,,,,0.000000,4.000000,4.000000,2.000000,4.000000,4.000000,83.333336,,,,,,,,,,,,,,,,,,,,,,,,,,,,,,,,,,,,,,,,,,,,,,,,,,,,,,,,,,,,,,,,,,,,
1708896305.614306,1708896305.615681,53.000000,0.000000,4188.717773,3464.615479,4326.666504,4308.205078,4268.717773,0.000000,3.000000,64.000000,,,,0.000000,4.000000,4.000000,2.000000,4.000000,4.000000,83.333336,,,,,,,,,,,,,,,,,,,,,,,,,,,,,,,,,,,,,,,,,,,,,,,,,,,,,,,,,,,,,,,,,,,,
1708896305.622121,1708896305.623596,54.000000,0.000000,4194.358887,3466.666748,4356.922852,4346.153809,4291.282227,0.000000,3.000000,64.000000,,,,0.000000,4.000000,4.000000,2.000000,4.000000,4.000000,83.333336,,,,,,,,,,,,,,,,,,,,,,,,,,,,,,,,,,,,,,,,,,,,,,,,,,,,,,,,,,,,,,,,,,,,
1708896305.629936,1708896305.631511,55.000000,0.000000,4183.077148,3433.846191,4349.743652,4345.641113,4273.846191,0.000000,3.000000,64.000000,,,,0.000000,4.000000,4.000000,2.000000,4.000000,4.000000,83.333336,,,,,,,,,,,,,,,,,,,,,,,,,,,,,,,,,,,,,,,,,,,,,,,,,,,,,,,,,,,,,,,,,,,,
1708896305.637751,1708896305.639226,56.000000,0.000000,4183.077148,3391.794922,4303.589844,4364.615234,4235.384766,0.000000,3.000000,64.000000,,,,0.000000,4.000000,4.000000,2.000000,4.000000,4.000000,83.333336,,,,,,,,,,,,,,,,,,,,,,,,,,,,,,,,,,,,,,,,,,,,,,,,,,,,,,,,,,,,,,,,,,,,
1708896305.645565,1708896305.647142,57.000000,0.000000,4206.153809,3391.281982,4293.846191,4383.077148,4239.487305,0.000000,3.000000,64.000000,,,,0.000000,4.000000,4.000000,2.000000,4.000000,4.000000,83.333336,,,,,,,,,,,,,,,,,,,,,,,,,,,,,,,,,,,,,,,,,,,,,,,,,,,,,,,,,,,,,,,,,,,,
1708896305.653380,1708896305.654856,58.000000,0.000000,4195.384766,3375.897461,4292.820313,4381.025879,4231.282227,0.000000,3.000000,64.000000,,,,0.000000,4.000000,4.000000,2.000000,4.000000,4.000000,83.333336,,,,,,,,,,,,,,,,,,,,,,,,,,,,,,,,,,,,,,,,,,,,,,,,,,,,,,,,,,,,,,,,,,,,
1708896305.661195,1708896305.662771,59.000000,0.000000,4152.820313,3339.487061,4266.153809,4324.102539,4181.025879,0.000000,3.000000,64.000000,,,,0.000000,4.000000,4.000000,2.000000,4.000000,4.000000,83.333336,,,,,,,,,,,,,,,,,,,,,,,,,,,,,,,,,,,,,,,,,,,,,,,,,,,,,,,,,,,,,,,,,,,,
1708896305.669010,1708896305.670486,60.000000,0.000000,4143.589844,3354.358887,4254.358887,4283.589844,4151.794922,0.000000,3.000000,64.000000,,,,0.000000,4.000000,4.000000,2.000000,4.000000,4.000000,83.333336,,,,,,,,,,,,,,,,,,,,,,,,,,,,,,,,,,,,,,,,,,,,,,,,,,,,,,,,,,,,,,,,,,,,
1708896305.676824,1708896305.678401,61.000000,0.000000,4139.487305,3361.538574,4249.230957,4294.871582,4162.563965,0.000000,3.000000,64.000000,,,,0.000000,4.000000,4.000000,2.000000,4.000000,4.000000,83.333336,,,,,,,,,,,,,,,,,,,,,,,,,,,,,,,,,,,,,,,,,,,,110.361481,18.102062,9.063716,13.627740,19.009930,107.052353,34.149887,34.518902,31.857748,92.075706,38.702351,44.771641,76.531868,67.607101,25.744516,43.236557,42.876015,15.849050,57.625607,35.522427,83.170403,32.682945,10.510956,12.795716,15.265386
1708896305.684639,1708896305.686115,62.000000,0.000000,4128.205078,3334.871826,4262.563965,4296.922852,4178.974121,0.000000,3.000000,64.000000,,,,0.000000,4.000000,4.000000,2.000000,4.000000,4.000000,83.333336,,,,,,,,,,,,,,,,,,,,,,,,,,,,,,,,,,,,,,,,,,,,,,,,,,,,,,,,,,,,,,,,,,,,
1708896305.692454,1708896305.693830,63.000000,0.000000,4143.077148,3361.025635,4272.820313,4283.589844,4177.436035,0.000000,3.000000,64.000000,,,,0.000000,4.000000,4.000000,2.000000,4.000000,4.000000,83.333336,,,,,,,,,,,,,,,,,,,,,,,,,,,,,,,,,,,,,,,,,,,,,,,,,,,,,,,,,,,,,,,,,,,,
1708896305.700269,1708896305.701545,64.000000,0.000000,4179.487305,3431.794922,4262.563965,4298.461426,4163.589844,450.000000,3.000000,64.000000,,,,0.000000,4.000000,4.000000,2.000000,4.000000,4.000000,83.333336,,,,,,,,,,,,,,,,,,,,,,,,,,,,,,,,,,,,,,,,,,,,,,,,,,,,,,,,,,,,,,,,,,,,
1708896305.708084,1708896305.709260,65.000000,0.000000,4168.717773,3449.743652,4263.589844,4337.948730,4170.769043,450.000000,3.000000,64.000000,,,,0.000000,4.000000,4.000000,2.000000,4.000000,4.000000,83.333336,,,,,,,,,,,,,,,,,,,,,,,,,,,,,,,,,,,,,,,,,,,,,,,,,,,,,,,,,,,,,,,,,,,,
1708896305.715898,1708896305.716974,66.000000,0.000000,4136.410156,3429.230713,4251.282227,4313.333496,4156.922852,1023.000000,3.000000,64.000000,,,,0.000000,4.000000,4.000000,2.000000,4.000000,4.000000,83.333336,,,,,,,,,,,,,,,,,,,,,,,,,,,,,,,,,,,,,,,,,,,,,,,,,,,,,,,,,,,,,,,,,,,,
1708896305.723713,1708896305.724689,67.000000,0.000000,4124.102539,3434.871826,4223.589844,4264.615234,4142.563965,450.000000,3.000000,64.000000,,,,0.000000,4.000000,4.000000,2.000000,4.000000,4.000000,83.333336,,,,,,,,,,,,,,,,,,,,,,,,,,,,,,,,,,,,,,,,,,,,,,,,,,,,,,,,,,,,,,,,,,,,
1708896305.731528,1708896305.732404,68.000000,0.000000,4129.743652,3441.025635,4244.102539,4244.102539,4183.077148,1023.000000,3.000000,64.000000,,,,0.000000,4.000000,4.000000,2.000000,4.000000,4.000000,83.333336,,,,,,,,,,,,,,,,,,,,,,,,,,,,,,,,,,,,,,,,,,,,,,,,,,,,,,,,,,,,,,,,,,,,
1708896305.739343,1708896305.740119,69.000000,0.000000,4139.487305,3431.281982,4258.461426,4234.871582,4210.256348,450.000000,3.000000,64.000000,,,,0.000000,4.000000,4.000000,2.000000,4.000000,4.000000,83.333336,,,,,,,,,,,,,,,,,,,,,,,,,,,,,,,,,,,,,,,,,,,,,,,,,,,,,,,,,,,,,,,,,,,,
1708896305.747157,1708896305.747833,70.000000,0.000000,4114.358887,3394.358887,4261.538574,4211.282227,4220.512695,147.000000,3.000000,64.000000,,,,0.000000,4.000000,4.000000,1.000000,4.000000,4.000000,75.000000,,,,,,,,,,,,,,,,,,,,,,,,,,,,,,,,,,,,,,,,,,,,,,,,,,,,,,,,,,,,,,,,,,,,
1708896305.754972,1708896305.755748,71.000000,0.000000,4062.051270,3347.179443,4233.846191,4168.717773,4261.025879,450.000000,3.000000,64.000000,,,,0.000000,4.000000,4.000000,1.000000,4.000000,4.000000,75.000000,,,,,,,,,,,,,,,,,,,,,,,,,,,,,,,,,,,,,,,,,,,,,,,,,,,,,,,,,,,,,,,,,,,,
1708896305.762787,1708896305.763463,72.000000,0.000000,4028.205078,3346.666748,4206.666504,4147.692383,4327.692383,450.000000,3.000000,64.000000,,,,0.000000,4.000000,4.000000,1.000000,4.000000,4.000000,75.000000,,,,,,,,,,,,,,,,,,,,,,,,,,,,,,,,,,,,,,,,,,,,,,,,,,,,,,,,,,,,,,,,,,,,
1708896305.770602,1708896305.771378,73.000000,0.000000,4043.076904,3384.615479,4187.692383,4159.487305,4363.589844,258.000000,3.000000,64.000000,,,,0.000000,4.000000,4.000000,1.000000,2.000000,4.000000,58.333332,,,,,,,,,,,,,,,,,,,,,,,,,,,,,,,,,,,,,,,,,,,,,,,,,,,,,,,,,,,,,,,,,,,,
1708896305.778417,1708896305.779294,74.000000,0.000000,4050.769287,3400.512939,4208.205078,4187.692383,4360.000000,450.000000,3.000000,64.000000,,,,0.000000,4.000000,4.000000,1.000000,2.000000,4.000000,58.333332,,,,,,,,,,,,,,,,,,,,,,,,,,,,,,,,,,,,,,,,,,,,,,,,,,,,,,,,,,,,,,,,,,,,
1708896305.786231,1708896305.787009,75.000000,0.000000,4024.615479,3392.820557,4192.820313,4173.333496,4390.769043,1023.000000,3.000000,64.000000,,,,0.000000,4.000000,4.000000,1.000000,2.000000,4.000000,58.333332,,,,,,,,,,,,,,,,,,,,,,,,,,,,,,,,,,,,,,,,,,,,,,,,,,,,,,,,,,,,,,,,,,,,
1708896305.794046,1708896305.794723,76.000000,0.000000,4034.871826,3403.589844,4143.589844,4152.820313,4421.538574,450.000000,3.000000,64.000000,,,,0.000000,4.000000,4.000000,1.000000,2.000000,4.000000,58.333332,,,,,,,,,,,,,,,,,,,,,,,,,,,,,,,,,,,,,,,,,,,,,,,,,,,,,,,,,,,,,,,,,,,,
1708896305.801861,1708896305.802438,77.000000,0.000000,4069.743652,3424.102539,4110.769043,4180.000000,4390.256348,450.000000,3.000000,64.000000,,,,0.000000,4.000000,4.000000,1.000000,2.000000,4.000000,58.333332,1.000000,0.000000,1.000000,0.000000,0.000000,0.000000,1.000000,,,,,,,,,,,,,,,,,,,,,,,,,,,,,,,,,,,,,166.160446,21.833900,9.943048,16.909271,23.903606,58.298187,39.203007,45.114395,38.233620,118.291176,36.917702,49.402218,76.144203,69.740761,24.707432,46.398823,56.222412,17.903059,71.217094,43.111362,121.739571,36.596859,12.065220,13.523991,18.477213
1708896305.809676,1708896305.810353,78.000000,0.000000,4075.897461,3442.564209,4090.256348,4186.666504,4356.922852,450.000000,3.000000,64.000000,,,,0.000000,4.000000,4.000000,1.000000,2.000000,4.000000,58.333332,,,,,,,,,,,,,,,,,,,,,,,,,,,,,,,,,,,,,,,,,,,,,,,,,,,,,,,,,,,,,,,,,,,,
1708896305.817490,1708896305.818068,79.000000,0.000000,4062.564209,3442.051270,4091.281982,4164.615234,4367.179688,1023.000000,3.000000,64.000000,,,,0.000000,4.000000,4.000000,1.000000,2.000000,4.000000,58.333332,,,,,,,,,,,,,,,,,,,,,,,,,,,,,,,,,,,,,,,,,,,,,,,,,,,,,,,,,,,,,,,,,,,,
1708896305.825305,1708896305.825983,80.000000,0.000000,4090.256348,3454.871826,4046.666748,4141.538574,4343.077148,450.000000,3.000000,64.000000,,,,0.000000,4.000000,4.000000,1.000000,2.000000,4.000000,58.333332,,,,,,,,,,,,,,,,,,,,,,,,,,,,,,,,,,,,,,,,,,,,,,,,,,,,,,,,,,,,,,,,,,,,
1708896305.833120,1708896305.833898,81.000000,0.000000,4130.256348,3493.846191,4018.461426,4128.717773,4301.538574,450.000000,3.000000,64.000000,,,,0.000000,4.000000,4.000000,1.000000,2.000000,4.000000,58.333332,,,,,,,,,,,,,,,,,,,,,,,,,,,,,,,,,,,,,,,,,,,,,,,,,,,,,,,,,,,,,,,,,,,,
1708896305.840935,1708896305.841813,82.000000,0.000000,4122.563965,3509.230713,4022.051270,4120.000000,4346.153809,450.000000,3.000000,64.000000,,,,0.000000,4.000000,4.000000,1.000000,2.000000,4.000000,58.333332,,,,,,,,,,,,,,,,,,,,,,,,,,,,,,,,,,,,,,,,,,,,,,,,,,,,,,,,,,,,,,,,,,,,
1708896305.848750,1708896305.849728,83.000000,0.000000,4157.436035,3568.718018,4032.307617,4093.333252,4342.563965,1023.000000,3.000000,64.000000,,,,0.000000,4.000000,4.000000,1.000000,2.000000,4.000000,58.333332,,,,,,,,,,,,,,,,,,,,,,,,,,,,,,,,,,,,,,,,,,,,,,,,,,,,,,,,,,,,,,,,,,,,
1708896305.856564,1708896305.857643,84.000000,0.000000,4278.974121,3740.512939,4013.333252,4015.897461,4220.000000,450.000000,3.000000,64.000000,,,,0.000000,4.000000,4.000000,1.000000,2.000000,4.000000,58.333332,,,,,,,,,,,,,,,,,,,,,,,,,,,,,,,,,,,,,,,,,,,,,,,,,,,,,,,,,,,,,,,,,,,,
1708896305.864379,1708896305.865559,85.000000,0.000000,4277.948730,3896.923096,4019.487061,4043.076904,4126.666504,450.000000,3.000000,64.000000,,,,0.000000,4.000000,4.000000,1.000000,2.000000,4.000000,58.333332,,,,,,,,,,,,,,,,,,,,,,,,,,,,,,,,,,,,,,,,,,,,,,,,,,,,,,,,,,,,,,,,,,,,
1708896305.872194,1708896305.873474,86.000000,0.000000,4110.256348,3922.051270,4132.307617,4255.384766,4131.794922,450.000000,3.000000,64.000000,,,,0.000000,4.000000,4.000000,1.000000,2.000000,4.000000,58.333332,,,,,,,,,,,,,,,,,,,,,,,,,,,,,,,,,,,,,,,,,,,,,,,,,,,,,,,,,,,,,,,,,,,,
1708896305.880009,1708896305.881389,87.000000,0.000000,4058.461426,3875.897461,4193.333496,4357.948730,4127.179688,1023.000000,3.000000,64.000000,,,,0.000000,4.000000,4.000000,1.000000,2.000000,4.000000,58.333332,,,,,,,,,,,,,,,,,,,,,,,,,,,,,,,,,,,,,,,,,,,,,,,,,,,,,,,,,,,,,,,,,,,,
1708896305.887823,1708896305.889104,88.000000,0.000000,4151.794922,3850.256348,4133.846191,4275.897461,4094.358887,450.000000,3.000000,64.000000,,,,0.000000,4.000000,4.000000,1.000000,2.000000,4.000000,58.333332,,,,,,,,,,,,,,,,,,,,,,,,,,,,,,,,,,,,,,,,,,,,,,,,,,,,,,,,,,,,,,,,,,,,
1708896305.895638,1708896305.897019,89.000000,0.000000,4132.307617,3814.871826,4032.820557,4209.743652,4162.563965,450.000000,3.000000,64.000000,,,,0.000000,4.000000,4.000000,1.000000,2.000000,4.000000,58.333332,,,,,,,,,,,,,,,,,,,,,,,,,,,,,,,,,,,,,,,,,,,,,,,,,,,,,,,,,,,,,,,,,,,,
1708896305.903453,1708896305.904734,90.000000,0.000000,4094.871826,3789.230713,3979.487061,4213.333496,4254.871582,450.000000,3.000000,64.000000,,,,0.000000,4.000000,4.000000,1.000000,2.000000,4.000000,58.333332,,,,,,,,,,,,,,,,,,,,,,,,,,,,,,,,,,,,,,,,,,,,,,,,,,,,,,,,,,,,,,,,,,,,
1708896305.911268,1708896305.912650,91.000000,0.000000,4154.871582,3775.384521,3925.641113,4212.820313,4290.769043,1023.000000,3.000000,64.000000,,,,0.000000,4.000000,4.000000,1.000000,2.000000,4.000000,58.333332,,,,,,,,,,,,,,,,,,,,,,,,,,,,,,,,,,,,,,,,,,,,,,,,,,,,,,,,,,,,,,,,,,,,
1708896305.919083,1708896305.920365,92.000000,0.000000,4170.769043,3742.051270,3831.794922,4173.846191,4351.282227,450.000000,3.000000,64.000000,,,,0.000000,4.000000,4.000000,1.000000,2.000000,4.000000,58.333332,,,,,,,,,,,,,,,,,,,,,,,,,,,,,,,,,,,,,,,,,,,,,,,,,,,,,,,,,,,,,,,,,,,,
1708896305.926897,1708896305.928281,93.000000,0.000000,4069.230713,3657.948730,3706.153809,4122.051270,4374.871582,450.000000,3.000000,64.000000,,,,0.000000,4.000000,4.000000,1.000000,2.000000,4.000000,58.333332,,,,,,,,,,,,,,,,,,,,,,,,,,,,,,,,,,,,,,,,,,,,232.914627,27.527527,11.166852,19.778118,27.940699,45.269466,47.773750,61.391720,43.856297,138.428314,43.835594,51.698956,72.093765,68.533501,26.517771,53.522072,66.099655,19.374258,77.938286,47.034809,165.017593,38.632175,14.767846,13.566575,20.978783
1708896305.934712,1708896305.936196,94.000000,0.000000,3999.487061,3493.333252,3570.256348,4067.179443,4295.897461,450.000000,3.000000,64.000000,,,,0.000000,4.000000,4.000000,1.000000,2.000000,4.000000,58.333332,,,,,,,,,,,,,,,,,,,,,,,,,,,,,,,,,,,,,,,,,,,,,,,,,,,,,,,,,,,,,,,,,,,,
1708896305.942527,1708896305.944111,95.000000,0.000000,4076.923096,3424.102539,3445.128174,3917.948730,4231.282227,1023.000000,3.000000,64.000000,,,,0.000000,4.000000,4.000000,1.000000,2.000000,4.000000,58.333332,,,,,,,,,,,,,,,,,,,,,,,,,,,,,,,,,,,,,,,,,,,,,,,,,,,,,,,,,,,,,,,,,,,,
1708896305.950342,1708896305.951826,96.000000,0.000000,4173.846191,3642.564209,3526.666748,3775.384521,4141.538574,450.000000,3.000000,64.000000,,,,0.000000,4.000000,4.000000,1.000000,2.000000,4.000000,58.333332,,,,,,,,,,,,,,,,,,,,,,,,,,,,,,,,,,,,,,,,,,,,,,,,,,,,,,,,,,,,,,,,,,,,
1708896305.958156,1708896305.959741,97.000000,0.000000,4077.948730,3792.307617,3805.641113,3908.718018,3931.794922,450.000000,3.000000,64.000000,,,,0.000000,4.000000,4.000000,1.000000,2.000000,4.000000,58.333332,,,,,,,,,,,,,,,,,,,,,,,,,,,,,,,,,,,,,,,,,,,,,,,,,,,,,,,,,,,,,,,,,,,,
1708896305.965971,1708896305.967456,98.000000,0.000000,3836.923096,3432.307617,3780.512939,4008.718018,3908.718018,450.000000,3.000000,64.000000,,,,0.000000,4.000000,4.000000,1.000000,2.000000,4.000000,58.333332,,,,,,,,,,,,,,,,,,,,,,,,,,,,,,,,,,,,,,,,,,,,,,,,,,,,,,,,,,,,,,,,,,,,
1708896305.973786,1708896305.975371,99.000000,0.000000,3878.461426,3158.461426,3460.512939,3694.871826,4100.000000,1023.000000,3.000000,64.000000,,,,0.000000,4.000000,4.000000,1.000000,2.000000,4.000000,58.333332,,,,,,,,,,,,,,,,,,,,,,,,,,,,,,,,,,,,,,,,,,,,,,,,,,,,,,,,,,,,,,,,,,,,
1708896305.981601,1708896305.983086,100.000000,0.000000,4082.564209,3400.000000,3491.281982,3560.512939,3961.025635,450.000000,3.000000,64.000000,,,,0.000000,4.000000,4.000000,1.000000,2.000000,4.000000,58.333332,,,,,,,,,,,,,,,,,,,,,,,,,,,,,,,,,,,,,,,,,,,,,,,,,,,,,,,,,,,,,,,,,,,,
1708896305.989416,1708896305.991001,101.000000,0.000000,3980.512939,3451.794922,3624.102539,3754.358887,3728.205078,450.000000,3.000000,64.000000,,,,0.000000,4.000000,4.000000,1.000000,2.000000,4.000000,58.333332,,,,,,,,,,,,,,,,,,,,,,,,,,,,,,,,,,,,,,,,,,,,,,,,,,,,,,,,,,,,,,,,,,,,
1708896305.997230,1708896305.998716,102.000000,0.000000,3807.692383,3266.666748,3537.435791,3664.615479,3829.743652,450.000000,3.000000,64.000000,,,,0.000000,4.000000,4.000000,1.000000,2.000000,4.000000,58.333332,,,,,,,,,,,,,,,,,,,,,,,,,,,,,,,,,,,,,,,,,,,,,,,,,,,,,,,,,,,,,,,,,,,,
1708896306.005045,1708896306.006631,103.000000,0.000000,3845.128174,3334.871826,3602.051270,3495.897461,3908.205078,1023.000000,3.000000,64.000000,,,,0.000000,4.000000,4.000000,1.000000,2.000000,4.000000,58.333332,,,,,,,,,,,,,,,,,,,,,,,,,,,,,,,,,,,,,,,,,,,,,,,,,,,,,,,,,,,,,,,,,,,,
1708896306.012860,1708896306.014345,104.000000,0.000000,3869.230713,3442.564209,3738.461426,3563.076904,3764.615479,450.000000,3.000000,64.000000,,,,0.000000,4.000000,4.000000,1.000000,2.000000,4.000000,58.333332,,,,,,,,,,,,,,,,,,,,,,,,,,,,,,,,,,,,,,,,,,,,,,,,,,,,,,,,,,,,,,,,,,,,
1708896306.020675,1708896306.022260,105.000000,0.000000,3750.769287,3344.615479,3662.564209,3593.333252,3704.615479,450.000000,3.000000,64.000000,,,,0.000000,4.000000,4.000000,1.000000,2.000000,4.000000,58.333332,,,,,,,,,,,,,,,,,,,,,,,,,,,,,,,,,,,,,,,,,,,,,,,,,,,,,,,,,,,,,,,,,,,,
1708896306.028490,1708896306.029975,106.000000,0.000000,3691.281982,3321.025635,3570.256348,3477.948730,3708.718018,450.000000,3.000000,64.000000,,,,0.000000,4.000000,4.000000,1.000000,2.000000,4.000000,58.333332,,,,,,,,,,,,,,,,,,,,,,,,,,,,,,,,,,,,,,,,,,,,,,,,,,,,,,,,,,,,,,,,,,,,
1708896306.036304,1708896306.037890,107.000000,0.000000,3667.692383,3400.512939,3621.538574,3456.923096,3622.564209,1023.000000,3.000000,64.000000,,,,0.000000,4.000000,4.000000,1.000000,2.000000,4.000000,58.333332,,,,,,,,,,,,,,,,,,,,,,,,,,,,,,,,,,,,,,,,,,,,,,,,,,,,,,,,,,,,,,,,,,,,
1708896306.044119,1708896306.045605,108.000000,0.000000,3599.487061,3394.871826,3610.256348,3472.820557,3585.641113,450.000000,3.000000,64.000000,,,,0.000000,4.000000,4.000000,1.000000,2.000000,4.000000,58.333332,,,,,,,,,,,,,,,,,,,,,,,,,,,,,,,,,,,,,,,,,,,,,,,,,,,,,,,,,,,,,,,,,,,,
1708896306.051934,1708896306.053520,109.000000,0.000000,3567.692383,3391.281982,3566.153809,3451.794922,3580.000000,450.000000,3.000000,64.000000,,,,0.000000,4.000000,4.000000,1.000000,2.000000,4.000000,58.333332,,,,,,,,,,,,,,,,,,,,,,,,,,,,,,,,,,,,,,,,,,,,292.509705,33.909904,12.495513,21.358757,30.026251,53.386307,60.321415,83.181290,48.460976,147.748230,54.201225,52.003056,65.748734,64.225670,29.533268,58.613728,70.892761,19.744829,75.668976,45.908527,204.545990,38.396160,17.711964,12.712188,22.235661
1708896306.059749,1708896306.061234,110.000000,0.000000,3538.461426,3413.333252,3538.974365,3453.333252,3534.358887,450.000000,3.000000,64.000000,,,,0.000000,4.000000,4.000000,1.000000,2.000000,4.000000,58.333332,,,,,,,,,,,,,,,,,,,,,,,,,,,,,,,,,,,,,,,,,,,,,,,,,,,,,,,,,,,,,,,,,,,,
1708896306.067563,1708896306.068949,111.000000,0.000000,3461.538574,3431.281982,3530.256348,3423.076904,3513.846191,1023.000000,3.000000,64.000000,,,,0.000000,4.000000,4.000000,1.000000,2.000000,4.000000,58.333332,,,,,,,,,,,,,,,,,,,,,,,,,,,,,,,,,,,,,,,,,,,,,,,,,,,,,,,,,,,,,,,,,,,,
1708896306.075378,1708896306.076664,112.000000,0.000000,3404.102539,3473.846191,3554.871826,3431.794922,3537.435791,450.000000,3.000000,64.000000,,,,0.000000,4.000000,4.000000,1.000000,2.000000,4.000000,58.333332,,,,,,,,,,,,,,,,,,,,,,,,,,,,,,,,,,,,,,,,,,,,,,,,,,,,,,,,,,,,,,,,,,,,
1708896306.083193,1708896306.084379,113.000000,0.000000,3436.410156,3567.692383,3591.794922,3446.666748,3549.743652,450.000000,3.000000,64.000000,,,,0.000000,4.000000,4.000000,1.000000,2.000000,4.000000,58.333332,,,,,,,,,,,,,,,,,,,,,,,,,,,,,,,,,,,,,,,,,,,,,,,,,,,,,,,,,,,,,,,,,,,,
1708896306.091008,1708896306.092093,114.000000,0.000000,3438.974365,3707.179443,3643.076904,3440.000000,3494.871826,450.000000,3.000000,64.000000,,,,0.000000,4.000000,4.000000,1.000000,2.000000,4.000000,58.333332,,,,,,,,,,,,,,,,,,,,,,,,,,,,,,,,,,,,,,,,,,,,,,,,,,,,,,,,,,,,,,,,,,,,
1708896306.098823,1708896306.100009,115.000000,0.000000,3355.897461,3793.846191,3570.256348,3420.512939,3458.974365,1023.000000,3.000000,64.000000,,,,0.000000,4.000000,4.000000,1.000000,2.000000,4.000000,58.333332,,,,,,,,,,,,,,,,,,,,,,,,,,,,,,,,,,,,,,,,,,,,,,,,,,,,,,,,,,,,,,,,,,,,
1708896306.106637,1708896306.107924,116.000000,0.000000,3333.333252,3918.974365,3475.897461,3430.769287,3446.153809,450.000000,3.000000,64.000000,,,,0.000000,4.000000,4.000000,1.000000,2.000000,4.000000,58.333332,,,,,,,,,,,,,,,,,,,,,,,,,,,,,,,,,,,,,,,,,,,,,,,,,,,,,,,,,,,,,,,,,,,,
1708896306.114452,1708896306.115639,117.000000,0.000000,3316.410156,4092.820557,3518.461426,3466.153809,3449.743652,450.000000,3.000000,64.000000,,,,0.000000,4.000000,4.000000,1.000000,2.000000,4.000000,58.333332,,,,,,,,,,,,,,,,,,,,,,,,,,,,,,,,,,,,,,,,,,,,,,,,,,,,,,,,,,,,,,,,,,,,
1708896306.122267,1708896306.123353,118.000000,0.000000,3284.102539,4222.563965,3594.871826,3442.564209,3489.230713,450.000000,3.000000,64.000000,,,,0.000000,4.000000,4.000000,1.000000,2.000000,4.000000,58.333332,,,,,,,,,,,,,,,,,,,,,,,,,,,,,,,,,,,,,,,,,,,,,,,,,,,,,,,,,,,,,,,,,,,,
1708896306.130082,1708896306.131068,119.000000,0.000000,3310.769287,4307.692383,3590.769287,3424.102539,3478.461426,1023.000000,3.000000,64.000000,,,,0.000000,4.000000,4.000000,1.000000,2.000000,4.000000,58.333332,,,,,,,,,,,,,,,,,,,,,,,,,,,,,,,,,,,,,,,,,,,,,,,,,,,,,,,,,,,,,,,,,,,,
1708896306.137897,1708896306.138783,120.000000,0.000000,3331.281982,4435.897461,3577.435791,3442.564209,3413.333252,450.000000,3.000000,64.000000,,,,0.000000,4.000000,4.000000,1.000000,2.000000,4.000000,58.333332,,,,,,,,,,,,,,,,,,,,,,,,,,,,,,,,,,,,,,,,,,,,,,,,,,,,,,,,,,,,,,,,,,,,
1708896306.145711,1708896306.146497,121.000000,0.000000,3291.794922,4596.922852,3565.128174,3459.487061,3402.051270,450.000000,3.000000,64.000000,,,,0.000000,4.000000,4.000000,1.000000,2.000000,4.000000,58.333332,,,,,,,,,,,,,,,,,,,,,,,,,,,,,,,,,,,,,,,,,,,,,,,,,,,,,,,,,,,,,,,,,,,,
1708896306.153526,1708896306.154212,122.000000,0.000000,3276.923096,4735.384766,3526.666748,3477.948730,3439.487061,450.000000,3.000000,64.000000,,,,0.000000,4.000000,4.000000,1.000000,2.000000,4.000000,58.333332,,,,,,,,,,,,,,,,,,,,,,,,,,,,,,,,,,,,,,,,,,,,,,,,,,,,,,,,,,,,,,,,,,,,
1708896306.161341,1708896306.162127,123.000000,0.000000,3302.051270,4830.256348,3544.102539,3468.205078,3449.230713,1023.000000,3.000000,64.000000,,,,0.000000,4.000000,4.000000,1.000000,2.000000,4.000000,58.333332,,,,,,,,,,,,,,,,,,,,,,,,,,,,,,,,,,,,,,,,,,,,,,,,,,,,,,,,,,,,,,,,,,,,
1708896306.169156,1708896306.170042,124.000000,0.000000,3312.820557,4892.307617,3623.589844,3418.974365,3436.410156,450.000000,3.000000,64.000000,,,,0.000000,4.000000,4.000000,1.000000,2.000000,4.000000,58.333332,,,,,,,,,,,,,,,,,,,,,,,,,,,,,,,,,,,,,,,,,,,,,,,,,,,,,,,,,,,,,,,,,,,,
1708896306.176970,1708896306.177958,125.000000,0.000000,3265.128174,4995.384766,3636.923096,3443.589844,3396.410156,450.000000,3.000000,64.000000,,,,0.000000,4.000000,4.000000,1.000000,2.000000,4.000000,58.333332,,,,,,,,,,,,,,,,,,,,,,,,,,,,,,,,,,,,,,,,,,,,316.280975,38.995235,13.736818,21.501369,29.753933,82.048721,76.739334,107.783661,52.058315,144.293854,63.624672,52.807209,59.532246,58.036224,31.637789,63.598579,72.527367,19.542706,65.922386,40.339855,226.007339,37.233326,21.227936,11.317282,22.119608
1708896306.184785,1708896306.185873,126.000000,0.000000,3209.743652,5129.743652,3562.051270,3505.128174,3358.461426,450.000000,3.000000,64.000000,,,,0.000000,4.000000,4.000000,1.000000,2.000000,4.000000,58.333332,,,,,,,,,,,,,,,,,,,,,,,,,,,,,,,,,,,,,,,,,,,,,,,,,,,,,,,,,,,,,,,,,,,,
1708896306.192600,1708896306.193788,127.000000,0.000000,3234.358887,5204.102539,3500.000000,3485.128174,3353.333252,236.000000,3.000000,64.000000,,,,0.000000,4.000000,4.000000,1.000000,2.000000,4.000000,58.333332,,,,,,,,,,,,,,,,,,,,,,,,,,,,,,,,,,,,,,,,,,,,,,,,,,,,,,,,,,,,,,,,,,,,
1708896306.200415,1708896306.201703,0.000000,0.000000,3244.615479,5302.051270,3540.512939,3484.102539,3361.538574,450.000000,3.000000,64.000000,,,,0.000000,4.000000,4.000000,1.000000,2.000000,4.000000,58.333332,,,,,,,,,,,,,,,,,,,,,,,,,,,,,,,,,,,,,,,,,,,,,,,,,,,,,,,,,,,,,,,,,,,,
1708896306.208230,1708896306.209619,1.000000,0.000000,3182.564209,5452.307617,3576.410156,3544.615479,3391.794922,450.000000,3.000000,64.000000,,,,0.000000,4.000000,4.000000,1.000000,2.000000,4.000000,58.333332,,,,,,,,,,,,,,,,,,,,,,,,,,,,,,,,,,,,,,,,,,,,,,,,,,,,,,,,,,,,,,,,,,,,
1708896306.216044,1708896306.217534,2.000000,0.000000,3176.923096,5484.615234,3547.179443,3534.358887,3394.358887,1023.000000,3.000000,64.000000,,,,0.000000,4.000000,4.000000,1.000000,2.000000,4.000000,58.333332,,,,,,,,,,,,,,,,,,,,,,,,,,,,,,,,,,,,,,,,,,,,,,,,,,,,,,,,,,,,,,,,,,,,
1708896306.223859,1708896306.225248,3.000000,0.000000,3233.333252,5450.256348,3547.179443,3471.281982,3335.897461,450.000000,3.000000,64.000000,,,,0.000000,4.000000,4.000000,1.000000,2.000000,4.000000,58.333332,,,,,,,,,,,,,,,,,,,,,,,,,,,,,,,,,,,,,,,,,,,,,,,,,,,,,,,,,,,,,,,,,,,,
1708896306.231674,1708896306.232963,4.000000,0.000000,3194.358887,5500.512695,3575.897461,3491.794922,3301.538574,1023.000000,3.000000,64.000000,,,,0.000000,4.000000,4.000000,1.000000,2.000000,4.000000,58.333332,,,,,,,,,,,,,,,,,,,,,,,,,,,,,,,,,,,,,,,,,,,,,,,,,,,,,,,,,,,,,,,,,,,,
1708896306.239489,1708896306.240879,5.000000,0.000000,3134.358887,5594.871582,3531.794922,3571.794922,3325.128174,450.000000,3.000000,64.000000,,,,0.000000,4.000000,4.000000,1.000000,2.000000,4.000000,58.333332,,,,,,,,,,,,,,,,,,,,,,,,,,,,,,,,,,,,,,,,,,,,,,,,,,,,,,,,,,,,,,,,,,,,
1708896306.247304,1708896306.248594,6.000000,0.000000,3161.025635,5633.846191,3469.230713,3601.025635,3319.487061,1023.000000,3.000000,64.000000,,,,0.000000,4.000000,4.000000,4.000000,2.000000,4.000000,83.333336,,,,,,,,,,,,,,,,,,,,,,,,,,,,,,,,,,,,,,,,,,,,,,,,,,,,,,,,,,,,,,,,,,,,
1708896306.255118,1708896306.256509,7.000000,0.000000,3188.205078,5626.153809,3467.179443,3556.923096,3300.000000,450.000000,3.000000,64.000000,,,,0.000000,4.000000,4.000000,4.000000,2.000000,4.000000,83.333336,,,,,,,,,,,,,,,,,,,,,,,,,,,,,,,,,,,,,,,,,,,,,,,,,,,,,,,,,,,,,,,,,,,,
1708896306.262933,1708896306.264424,8.000000,0.000000,3193.846191,5638.974121,3527.692383,3537.948730,3353.846191,450.000000,3.000000,64.000000,,,,0.000000,4.000000,4.000000,4.000000,2.000000,4.000000,83.333336,,,,,,,,,,,,,,,,,,,,,,,,,,,,,,,,,,,,,,,,,,,,,,,,,,,,,,,,,,,,,,,,,,,,
1708896306.270748,1708896306.272339,9.000000,0.000000,3222.564209,5637.436035,3589.230713,3572.307617,3414.871826,1023.000000,3.000000,64.000000,,,,0.000000,4.000000,4.000000,4.000000,4.000000,4.000000,100.000000,,,,,,,,,,,,,,,,,,,,,,,,,,,,,,,,,,,,,,,,,,,,,,,,,,,,,,,,,,,,,,,,,,,,
1708896306.278563,1708896306.280054,10.000000,0.000000,3247.179443,5561.538574,3588.205078,3569.230713,3377.948730,450.000000,3.000000,64.000000,,,,0.000000,4.000000,4.000000,4.000000,4.000000,4.000000,100.000000,,,,,,,,,,,,,,,,,,,,,,,,,,,,,,,,,,,,,,,,,,,,,,,,,,,,,,,,,,,,,,,,,,,,
1708896306.286377,1708896306.287969,11.000000,0.000000,3230.769287,5524.615234,3562.564209,3546.666748,3311.794922,1023.000000,3.000000,64.000000,,,,0.000000,4.000000,4.000000,4.000000,4.000000,4.000000,100.000000,,,,,,,,,,,,,,,,,,,,,,,,,,,,,,,,,,,,,,,,,,,,,,,,,,,,,,,,,,,,,,,,,,,,
1708896306.294192,1708896306.295684,12.000000,0.000000,3161.025635,5538.461426,3531.281982,3547.692383,3304.615479,450.000000,3.000000,64.000000,,,,0.000000,4.000000,4.000000,4.000000,4.000000,4.000000,100.000000,,,,,,,,,,,,,,,,,,,,,,,,,,,,,,,,,,,,,,,,,,,,,,,,,,,,,,,,,,,,,,,,,,,,
1708896306.302007,1708896306.303599,13.000000,0.000000,3144.102539,5474.871582,3503.076904,3557.948730,3336.410156,450.000000,3.000000,64.000000,,,,0.000000,4.000000,4.000000,4.000000,4.000000,4.000000,100.000000,1.000000,0.000000,1.000000,0.000000,0.000000,0.000000,0.000000,,,,,,,,,,,,,,,,,,,,,,,,,,,,,,,,,,,,,301.646973,41.089001,14.721401,20.639996,27.777914,135.649796,94.010994,130.380875,55.000523,129.972794,76.128227,57.067802,55.388103,51.676968,31.570526,74.186630,73.255760,19.674501,52.732464,32.785873,230.175247,38.837578,26.236416,10.034617,21.125576
1708896306.309822,1708896306.311314,14.000000,0.000000,3217.948730,5422.051270,3552.820557,3575.384521,3363.589844,450.000000,3.000000,64.000000,,,,0.000000,4.000000,4.000000,4.000000,4.000000,4.000000,100.000000,,,,,,,,,,,,,,,,,,,,,,,,,,,,,,,,,,,,,,,,,,,,,,,,,,,,,,,,,,,,,,,,,,,,
1708896306.317637,1708896306.319229,15.000000,0.000000,3265.128174,5380.512695,3641.538574,3579.487061,3366.153809,1023.000000,3.000000,64.000000,,,,0.000000,4.000000,4.000000,4.000000,4.000000,4.000000,100.000000,,,,,,,,,,,,,,,,,,,,,,,,,,,,,,,,,,,,,,,,,,,,,,,,,,,,,,,,,,,,,,,,,,,,
1708896306.325451,1708896306.326944,16.000000,0.000000,3233.333252,5238.461426,3577.948730,3550.769287,3319.487061,0.000000,3.000000,64.000000,,,,0.000000,4.000000,4.000000,4.000000,4.000000,4.000000,100.000000,,,,,,,,,,,,,,,,,,,,,,,,,,,,,,,,,,,,,,,,,,,,,,,,,,,,,,,,,,,,,,,,,,,,
1708896306.333266,1708896306.334859,17.000000,0.000000,3194.358887,5180.512695,3486.153809,3551.794922,3290.769287,0.000000,3.000000,64.000000,,,,0.000000,4.000000,4.000000,4.000000,4.000000,4.000000,100.000000,,,,,,,,,,,,,,,,,,,,,,,,,,,,,,,,,,,,,,,,,,,,,,,,,,,,,,,,,,,,,,,,,,,,
1708896306.341081,1708896306.342574,18.000000,0.000000,3196.410156,5207.692383,3531.794922,3585.641113,3343.076904,0.000000,3.000000,64.000000,,,,0.000000,4.000000,4.000000,4.000000,4.000000,4.000000,100.000000,,,,,,,,,,,,,,,,,,,,,,,,,,,,,,,,,,,,,,,,,,,,,,,,,,,,,,,,,,,,,,,,,,,,
1708896306.348896,1708896306.350491,19.000000,0.000000,3234.871826,5094.871582,3613.846191,3581.538574,3366.153809,0.000000,3.000000,64.000000,,,,0.000000,4.000000,4.000000,4.000000,4.000000,4.000000,100.000000,,,,,,,,,,,,,,,,,,,,,,,,,,,,,,,,,,,,,,,,,,,,,,,,,,,,,,,,,,,,,,,,,,,,
1708896306.356711,1708896306.358407,20.000000,0.000000,3266.666748,4969.230957,3629.230713,3569.743652,3303.589844,0.000000,3.000000,64.000000,,,,0.000000,4.000000,4.000000,4.000000,4.000000,4.000000,100.000000,,,,,,,,,,,,,,,,,,,,,,,,,,,,,,,,,,,,,,,,,,,,,,,,,,,,,,,,,,,,,,,,,,,,
1708896306.364525,1708896306.366323,21.000000,0.000000,3220.000000,4917.436035,3577.435791,3579.487061,3283.589844,0.000000,3.000000,64.000000,,,,0.000000,4.000000,4.000000,4.000000,4.000000,4.000000,100.000000,,,,,,,,,,,,,,,,,,,,,,,,,,,,,,,,,,,,,,,,,,,,,,,,,,,,,,,,,,,,,,,,,,,,
1708896306.372340,1708896306.374238,22.000000,0.000000,3176.410156,4828.717773,3509.743652,3601.025635,3337.435791,0.000000,3.000000,64.000000,,,,0.000000,4.000000,4.000000,4.000000,4.000000,4.000000,100.000000,,,,,,,,,,,,,,,,,,,,,,,,,,,,,,,,,,,,,,,,,,,,,,,,,,,,,,,,,,,,,,,,,,,,
1708896306.380155,1708896306.382153,23.000000,0.000000,3211.281982,4757.436035,3520.000000,3624.102539,3350.256348,0.000000,3.000000,64.000000,,,,0.000000,4.000000,4.000000,4.000000,4.000000,4.000000,100.000000,,,,,,,,,,,,,,,,,,,,,,,,,,,,,,,,,,,,,,,,,,,,,,,,,,,,,,,,,,,,,,,,,,,,
1708896306.387970,1708896306.389868,24.000000,0.000000,3260.512939,4659.487305,3563.589844,3592.820557,3363.076904,0.000000,3.000000,64.000000,,,,0.000000,4.000000,4.000000,4.000000,4.000000,4.000000,100.000000,,,,,,,,,,,,,,,,,,,,,,,,,,,,,,,,,,,,,,,,,,,,,,,,,,,,,,,,,,,,,,,,,,,,
1708896306.395784,1708896306.397783,25.000000,0.000000,3302.051270,4440.512695,3581.538574,3540.512939,3394.358887,0.000000,3.000000,64.000000,,,,0.000000,4.000000,4.000000,4.000000,4.000000,4.000000,100.000000,,,,,,,,,,,,,,,,,,,,,,,,,,,,,,,,,,,,,,,,,,,,,,,,,,,,,,,,,,,,,,,,,,,,
1708896306.403599,1708896306.405498,26.000000,0.000000,3322.564209,4270.256348,3607.692383,3550.256348,3360.512939,0.000000,3.000000,64.000000,,,,0.000000,4.000000,4.000000,4.000000,4.000000,4.000000,100.000000,,,,,,,,,,,,,,,,,,,,,,,,,,,,,,,,,,,,,,,,,,,,,,,,,,,,,,,,,,,,,,,,,,,,
1708896306.411414,1708896306.413413,27.000000,0.000000,3292.820557,4168.205078,3605.128174,3596.410156,3332.307617,0.000000,3.000000,64.000000,,,,0.000000,4.000000,4.000000,4.000000,4.000000,4.000000,100.000000,,,,,,,,,,,,,,,,,,,,,,,,,,,,,,,,,,,,,,,,,,,,,,,,,,,,,,,,,,,,,,,,,,,,
1708896306.419229,1708896306.421128,28.000000,0.000000,3287.692383,3982.051270,3567.692383,3631.281982,3395.897461,0.000000,3.000000,64.000000,,,,0.000000,4.000000,4.000000,4.000000,4.000000,4.000000,100.000000,,,,,,,,,,,,,,,,,,,,,,,,,,,,,,,,,,,,,,,,,,,,,,,,,,,,,,,,,,,,,,,,,,,,
1708896306.427044,1708896306.428843,29.000000,0.000000,3301.538574,3765.128174,3588.205078,3620.512939,3410.256348,0.000000,3.000000,64.000000,,,,0.000000,4.000000,4.000000,4.000000,4.000000,4.000000,100.000000,,,,,,,,,,,,,,,,,,,,,,,,,,,,,,,,,,,,,,,,,,,,255.862320,39.257790,15.307926,19.526207,25.473976,216.829910,107.689629,144.989822,57.388618,109.560020,98.001656,66.274986,53.890060,47.053680,29.697748,96.428925,74.666634,20.857918,40.635418,26.379318,228.498917,46.157486,33.319290,9.364362,20.100771
1708896306.434858,1708896306.436557,30.000000,0.000000,3321.025635,3664.102539,3655.384521,3585.128174,3383.076904,0.000000,3.000000,64.000000,,,,0.000000,4.000000,4.000000,4.000000,4.000000,4.000000,100.000000,,,,,,,,,,,,,,,,,,,,,,,,,,,,,,,,,,,,,,,,,,,,,,,,,,,,,,,,,,,,,,,,,,,,
1708896306.442673,1708896306.444272,31.000000,0.000000,3362.564209,3607.692383,3640.512939,3602.051270,3410.769287,0.000000,3.000000,64.000000,,,,0.000000,4.000000,4.000000,4.000000,4.000000,4.000000,100.000000,,,,,,,,,,,,,,,,,,,,,,,,,,,,,,,,,,,,,,,,,,,,,,,,,,,,,,,,,,,,,,,,,,,,
1708896306.450488,1708896306.451987,32.000000,0.000000,3337.435791,3449.230713,3567.179443,3635.384521,3408.205078,0.000000,3.000000,64.000000,,,,0.000000,4.000000,4.000000,4.000000,4.000000,4.000000,100.000000,,,,,,,,,,,,,,,,,,,,,,,,,,,,,,,,,,,,,,,,,,,,,,,,,,,,,,,,,,,,,,,,,,,,
