Timestamp,EEG.AF3,EEG.AF4,CQ.AF3,CQ.AF4,CQ.Overall,EQ.OVERALL,EQ.AF3,EQ.AF4,PM.Attention.IsActive,POW.AF3.Theta,POW.AF3.Alpha,POW.AF3.BetaL,POW.AF3.BetaH,POW.AF3.Gamma,POW.AF4.Theta,POW.AF4.Alpha,POW.AF4.BetaL,POW.AF4.BetaH,POW.AF4.Gamma,label
1708963861.001736,4276.410156,4119.487305,4.0,4.0,100.0,75.0,4.0,4.0,,15.618908,4.30156,5.302486,3.93542,1.681577,16.560911,5.9603,3.075575,1.20432,1.729325,0.0
1708963861.009551,4250.256348,4146.666504,4.0,4.0,100.0,,,,,,,,,,,,,,,0.0
1708963861.017366,4214.871582,4173.333496,4.0,4.0,100.0,,,,,,,,,,,,,,,0.0
1708963861.02518,4244.615234,4170.256348,4.0,4.0,100.0,,,,,,,,,,,,,,,0.0
1708963861.032995,4281.538574,4170.256348,4.0,4.0,100.0,,,,,,,,,,,,,,,0.0
1708963861.04081,4258.974121,4178.461426,4.0,4.0,100.0,,,,,,,,,,,,,,,0.0
1708963861.048625,4284.615234,4216.922852,4.0,4.0,100.0,,,,,,,,,,,,,,,0.0
1708963861.056439,4370.769043,4294.871582,4.0,4.0,100.0,,,,,,,,,,,,,,,0.0
1708963861.064254,4380.512695,4322.05127,4.0,4.0,100.0,,,,,,,,,,,,,,,0.0
1708963861.072069,4327.179688,4255.384766,4.0,4.0,100.0,,,,,,,,,,,,,,,0.0
1708963861.079883,4310.256348,4235.897461,4.0,4.0,100.0,,,,,,,,,,,,,,,0.0
1708963861.087698,4339.487305,4289.230957,4.0,4.0,100.0,,,,,,,,,,,,,,,0.0
1708963861.095513,4354.358887,4298.461426,4.0,4.0,100.0,,,,,,,,,,,,,,,0.0
1708963861.103328,4359.487305,4303.589844,4.0,4.0,100.0,,,,,,,,,,,,,,,0.0
1708963861.111143,4378.461426,4365.641113,4.0,4.0,100.0,,,,,,,,,,,,,,,0.0
1708963861.118957,4401.025879,4412.307617,4.0,4.0,100.0,,,,,,,,,,,,,,,0.0
1708963861.126772,4419.487305,4403.077148,4.0,4.0,100.0,,,,,21.570694,4.906464,4.561234,4.064137,1.714633,20.374168,6.301637,2.685203,1.392117,1.909981,0.0
1708963861.134587,4400.0,4403.077148,4.0,4.0,100.0,,,,,,,,,,,,,,,0.0
1708963861.142401,4363.077148,4416.922852,4.0,4.0,100.0,,,,,,,,,,,,,,,0.0
1708963861.150216,4370.769043,4391.282227,4.0,4.0,100.0,,,,,,,,,,,,,,,0.0
1708963861.158031,4379.487305,4360.512695,4.0,4.0,100.0,,,,,,,,,,,,,,,0.0
1708963861.165846,4351.282227,4381.538574,4.0,4.0,100.0,,,,,,,,,,,,,,,0.0
1708963861.17366,4326.153809,4380.0,4.0,4.0,100.0,,,,,,,,,,,,,,,0.0
1708963861.181475,4301.025879,4316.922852,4.0,4.0,100.0,,,,,,,,,,,,,,,0.0
1708963861.18929,4249.743652,4293.333496,4.0,4.0,100.0,,,,,,,,,,,,,,,0.0
1708963861.197104,4258.461426,4334.871582,4.0,4.0,100.0,,,,,,,,,,,,,,,0.0
1708963861.204919,4271.794922,4311.282227,4.0,4.0,100.0,,,,,,,,,,,,,,,0.0
1708963861.212734,4232.820313,4254.871582,4.0,4.0,100.0,,,,,,,,,,,,,,,0.0
1708963861.220549,4216.410156,4257.94873,4.0,4.0,100.0,,,,,,,,,,,,,,,0.0
1708963861.228363,4220.512695,4268.717773,4.0,4.0,100.0,,,,,,,,,,,,,,,0.0
1708963861.236178,4216.410156,4262.05127,4.0,4.0,100.0,,,,,,,,,,,,,,,0.0
1708963861.243993,4236.410156,4265.128418,4.0,4.0,100.0,,,,,,,,,,,,,,,0.0
1708963861.251808,4262.563965,4253.333496,4.0,4.0,100.0,,,,,33.445217,6.273628,4.02238,4.338723,1.827141,29.84934,7.476754,2.591266,1.685974,2.162775,0.0
1708963861.259622,4241.538574,4232.820313,4.0,4.0,100.0,,,,,,,,,,,,,,,0.0
1708963861.267437,4211.282227,4256.922852,4.0,4.0,100.0,,,,,,,,,,,,,,,0.0
1708963861.275252,4223.589844,4276.410156,4.0,4.0,100.0,,,,,,,,,,,,,,,0.0
1708963861.283066,4253.846191,4253.846191,4.0,4.0,100.0,,,,,,,,,,,,,,,0.0
1708963861.290881,4251.794922,4235.384766,4.0,4.0,100.0,,,,,,,,,,,,,,,0.0
1708963861.298696,4236.922852,4252.820313,4.0,4.0,100.0,,,,,,,,,,,,,,,0.0
1708963861.306511,4226.666504,4284.102539,4.0,4.0,100.0,,,,,,,,,,,,,,,0.0
1708963861.314325,4223.589844,4283.077148,4.0,4.0,100.0,,,,,,,,,,,,,,,0.0
1708963861.32214,4241.538574,4249.230957,4.0,4.0,100.0,,,,,,,,,,,,,,,0.0
1708963861.329955,4249.743652,4244.615234,4.0,4.0,100.0,,,,,,,,,,,,,,,0.0
1708963861.33777,4236.922852,4265.128418,4.0,4.0,100.0,,,,,,,,,,,,,,,0.0
1708963861.345584,4224.102539,4253.846191,4.0,4.0,100.0,,,,,,,,,,,,,,,0.0
1708963861.353399,4210.769043,4248.205078,4.0,4.0,100.0,,,,,,,,,,,,,,,0.0
1708963861.361214,4199.487305,4257.436035,4.0,4.0,100.0,,,,,,,,,,,,,,,0.0
1708963861.369028,4214.358887,4248.205078,4.0,4.0,100.0,,,,,,,,,,,,,,,0.0
1708963861.376843,4215.384766,4233.333496,4.0,4.0,100.0,,,,,49.661221,8.290433,3.745622,4.910373,2.068579,43.418159,9.27653,2.790326,2.106274,2.519968,0.0
1708963861.384658,4208.205078,4229.230957,4.0,4.0,100.0,,,,,,,,,,,,,,,0.0
1708963861.392473,4201.025879,4223.589844,4.0,4.0,100.0,,,,,,,,,,,,,,,0.0
1708963861.400287,4193.333496,4212.307617,4.0,4.0,100.0,,,,,,,,,,,,,,,0.0
1708963861.408102,4216.922852,4230.256348,4.0,4.0,100.0,,,,,,,,,,,,,,,0.0
1708963861.415917,4247.179688,4282.05127,4.0,4.0,100.0,,,,,,,,,,,,,,,0.0
1708963861.423731,4258.461426,4307.179688,4.0,4.0,100.0,,,,,,,,,,,,,,,0.0
1708963861.431546,4275.384766,4301.025879,4.0,4.0,100.0,,,,,,,,,,,,,,,0.0
1708963861.439361,4295.897461,4297.436035,4.0,4.0,100.0,,,,,,,,,,,,,,,0.0
1708963861.447176,4267.179688,4279.487305,4.0,4.0,100.0,,,,,,,,,,,,,,,0.0
1708963861.454991,4214.358887,4257.94873,4.0,4.0,100.0,,,,,,,,,,,,,,,0.0
1708963861.462805,4216.922852,4262.563965,4.0,4.0,100.0,,,,,,,,,,,,,,,0.0
1708963861.47062,4240.0,4263.589844,4.0,4.0,100.0,,,,,,,,,,,,,,,0.0
1708963861.478435,4224.102539,4253.846191,4.0,4.0,100.0,,,,,,,,,,,,,,,0.0
1708963861.486249,4227.692383,4269.230957,4.0,4.0,100.0,,,,,,,,,,,,,,,0.0
1708963861.494064,4278.974121,4285.128418,4.0,4.0,100.0,,,,,,,,,,,,,,,0.0
1708963861.501879,4283.077148,4286.666504,4.0,4.0,100.0,91.666664,4.0,4.0,,66.586586,10.709267,3.718379,5.789551,2.450663,57.915356,11.369356,3.268039,2.639868,2.991362,0.0
1708963861.501879,4283.077148,4286.666504,4.0,4.0,100.0,91.666664,4.0,4.0,,66.586586,10.709267,3.718379,5.789551,2.450663,57.915356,11.369356,3.268039,2.639868,2.991362,0.0
1708963861.509694,4242.05127,4290.769043,4.0,4.0,100.0,,,,,,,,,,,,,,,0.0
1708963861.517508,4247.179688,4297.436035,4.0,4.0,100.0,,,,,,,,,,,,,,,0.0
1708963861.525323,4274.358887,4292.307617,4.0,4.0,100.0,,,,,,,,,,,,,,,0.0
1708963861.533138,4294.871582,4288.717773,4.0,4.0,100.0,,,,,,,,,,,,,,,0.0
1708963861.540953,4351.794922,4323.077148,4.0,4.0,100.0,,,,,,,,,,,,,,,0.0
1708963861.548767,4438.461426,4385.641113,4.0,4.0,100.0,,,,,,,,,,,,,,,0.0
1708963861.556582,4515.897461,4441.538574,4.0,4.0,100.0,,,,,,,,,,,,,,,0.0
1708963861.564397,4589.230957,4469.743652,4.0,4.0,100.0,,,,,,,,,,,,,,,0.0
1708963861.572211,4681.538574,4477.436035,4.0,4.0,100.0,,,,,,,,,,,,,,,0.0
1708963861.580026,4733.333496,4496.410156,4.0,4.0,100.0,,,,,,,,,,,,,,,0.0
1708963861.587841,4760.512695,4545.128418,4.0,4.0,100.0,,,,,,,,,,,,,,,0.0
1708963861.595656,4787.179688,4542.05127,4.0,4.0,100.0,,,,,,,,,,,,,,,0.0
1708963861.60347,4738.974121,4461.538574,4.0,4.0,100.0,,,,,,,,,,,,,,,0.0
1708963861.611285,4649.743652,4423.589844,4.0,4.0,100.0,,,,,,,,,,,,,,,0.0
1708963861.6191,4611.282227,4425.128418,4.0,4.0,100.0,,,,,,,,,,,,,,,0.0
1708963861.626914,4562.05127,4327.692383,4.0,4.0,100.0,,,,,80.728409,13.031647,3.883375,6.820633,2.914175,70.240616,13.229681,3.956062,3.235265,3.537234,0.0
1708963861.634729,4507.692383,4252.307617,4.0,4.0,100.0,,,,,,,,,,,,,,,0.0
1708963861.642544,4525.641113,4305.641113,4.0,4.0,100.0,,,,,,,,,,,,,,,0.0
1708963861.650359,4508.205078,4301.538574,4.0,4.0,100.0,,,,,,,,,,,,,,,0.0
1708963861.658173,4402.05127,4201.025879,4.0,4.0,100.0,,,,,,,,,,,,,,,0.0
1708963861.665988,4336.922852,4167.692383,4.0,4.0,100.0,,,,,,,,,,,,,,,0.0
1708963861.673803,4322.05127,4170.769043,4.0,4.0,100.0,,,,,,,,,,,,,,,0.0
1708963861.681618,4285.641113,4112.820313,4.0,4.0,100.0,,,,,,,,,,,,,,,0.0
1708963861.689432,4279.487305,4096.410156,4.0,4.0,100.0,,,,,,,,,,,,,,,0.0
1708963861.697247,4303.589844,4133.846191,4.0,4.0,100.0,,,,,,,,,,,,,,,0.0
1708963861.705062,4276.922852,4125.128418,4.0,4.0,100.0,,,,,,,,,,,,,,,0.0
1708963861.712876,4251.794922,4105.128418,4.0,4.0,100.0,,,,,,,,,,,,,,,0.0
1708963861.720691,4305.641113,4162.05127,4.0,4.0,100.0,,,,,,,,,,,,,,,0.0
1708963861.728506,4333.333496,4203.589844,4.0,4.0,100.0,,,,,,,,,,,,,,,0.0
1708963861.736321,4281.538574,4158.461426,4.0,4.0,100.0,,,,,,,,,,,,,,,0.0
1708963861.744136,4264.615234,4130.769043,4.0,4.0,100.0,,,,,,,,,,,,,,,0.0
1708963861.75195,4291.282227,4142.05127,4.0,4.0,100.0,,,,,93.935104,15.189826,4.322731,7.730659,3.343354,80.360397,14.539303,4.827689,3.806919,4.058676,0.0
1708963861.759765,4279.487305,4123.077148,4.0,4.0,100.0,,,,,,,,,,,,,,,0.0
1708963861.76758,4254.358887,4116.410156,4.0,4.0,100.0,,,,,,,,,,,,,,,0.0
1708963861.775394,4238.974121,4120.0,4.0,4.0,100.0,,,,,,,,,,,,,,,0.0
1708963861.783209,4188.205078,4068.205078,4.0,4.0,100.0,,,,,,,,,,,,,,,0.0
1708963861.791024,4136.410156,4023.076904,4.0,4.0,100.0,,,,,,,,,,,,,,,0.0
1708963861.798839,4134.358887,4018.974365,4.0,4.0,100.0,,,,,,,,,,,,,,,0.0
1708963861.806653,4137.94873,4004.615479,4.0,4.0,100.0,,,,,,,,,,,,,,,0.0
1708963861.814468,4125.641113,4000.0,4.0,4.0,100.0,,,,,,,,,,,,,,,0.0
1708963861.822283,4121.025879,4032.307617,4.0,4.0,100.0,,,,,,,,,,,,,,,0.0
1708963861.830097,4129.230957,4042.564209,4.0,4.0,100.0,,,,,,,,,,,,,,,0.0
1708963861.837912,4141.025879,4015.384521,4.0,4.0,100.0,,,,,,,,,,,,,,,0.0
1708963861.845727,4109.743652,3980.512939,4.0,4.0,100.0,,,,,,,,,,,,,,,0.0
1708963861.853541,4047.692383,3940.512939,4.0,4.0,100.0,,,,,,,,,,,,,,,0.0
1708963861.861356,3998.974365,3908.718018,4.0,4.0,100.0,,,,,,,,,,,,,,,0.0
1708963861.869171,3981.025635,3897.94873,4.0,4.0,100.0,,,,,,,,,,,,,,,0.0
1708963861.876986,3964.102539,3876.923096,4.0,4.0,100.0,,,,,115.923866,17.374832,5.38024,8.231359,3.625306,92.047905,15.110949,5.934641,4.243005,4.450963,0.0
1708963861.884801,3939.487061,3852.820557,4.0,4.0,100.0,,,,,,,,,,,,,,,0.0
1708963861.892615,3904.615479,3831.281982,4.0,4.0,100.0,,,,,,,,,,,,,,,0.0
1708963861.90043,3886.666748,3812.820557,4.0,4.0,100.0,,,,,,,,,,,,,,,0.0
1708963861.908245,3920.512939,3827.179443,4.0,4.0,100.0,,,,,,,,,,,,,,,0.0
1708963861.916059,3949.230713,3845.128174,4.0,4.0,100.0,,,,,,,,,,,,,,,0.0
1708963861.923874,3947.692383,3837.94873,4.0,4.0,100.0,,,,,,,,,,,,,,,0.0
1708963861.931689,3942.05127,3832.307617,4.0,4.0,100.0,,,,,,,,,,,,,,,0.0
1708963861.939504,3941.025635,3852.307617,4.0,4.0,100.0,,,,,,,,,,,,,,,0.0
1708963861.947318,3935.384521,3869.743652,4.0,4.0,100.0,,,,,,,,,,,,,,,0.0
1708963861.955133,3929.230713,3864.102539,4.0,4.0,100.0,,,,,,,,,,,,,,,0.0
1708963861.962948,3942.564209,3842.05127,4.0,4.0,100.0,,,,,,,,,,,,,,,0.0
1708963861.970763,3962.564209,3843.076904,4.0,4.0,100.0,,,,,,,,,,,,,,,0.0
1708963861.978577,3937.435791,3851.794922,4.0,4.0,100.0,,,,,,,,,,,,,,,0.0
1708963861.986392,3886.153809,3825.641113,4.0,4.0,100.0,,,,,,,,,,,,,,,0.0
1708963861.994207,3871.281982,3798.974365,4.0,4.0,100.0,,,,,,,,,,,,,,,0.0
1708963862.002021,3889.230713,3808.205078,4.0,4.0,100.0,75.0,4.0,4.0,,157.517227,20.174702,7.455827,8.195631,3.715557,108.86454,15.067009,7.322852,4.475707,4.665396,0.0
1708963868.503875,4421.025879,4322.05127,4.0,4.0,100.0,83.333336,4.0,4.0,,43.253239,12.283656,5.170299,3.75204,1.311123,43.8204,15.148294,2.733942,1.629216,0.979505,-1.0
1708963868.51169,4442.563965,4336.410156,4.0,4.0,100.0,,,,,,,,,,,,,,,-1.0
1708963868.519505,4425.128418,4322.563965,4.0,4.0,100.0,,,,,,,,,,,,,,,-1.0
1708963868.52732,4382.05127,4308.717773,4.0,4.0,100.0,,,,,,,,,,,,,,,-1.0
1708963868.535134,4408.717773,4315.897461,4.0,4.0,100.0,,,,,,,,,,,,,,,-1.0
1708963868.542949,4458.974121,4313.333496,4.0,4.0,100.0,,,,,,,,,,,,,,,-1.0
1708963868.550764,4424.102539,4303.589844,4.0,4.0,100.0,,,,,,,,,,,,,,,-1.0
1708963868.558579,4375.384766,4298.974121,4.0,4.0,100.0,,,,,,,,,,,,,,,-1.0
1708963868.566393,4384.615234,4293.333496,4.0,4.0,100.0,,,,,,,,,,,,,,,-1.0
1708963868.574208,4403.077148,4298.461426,4.0,4.0,100.0,,,,,,,,,,,,,,,-1.0
1708963868.582023,4404.102539,4306.153809,4.0,4.0,100.0,,,,,,,,,,,,,,,-1.0
1708963868.589837,4394.358887,4296.410156,4.0,4.0,100.0,,,,,,,,,,,,,,,-1.0
1708963868.597652,4390.256348,4297.94873,4.0,4.0,100.0,,,,,,,,,,,,,,,-1.0
1708963868.605467,4403.589844,4306.153809,4.0,4.0,100.0,,,,,,,,,,,,,,,-1.0
1708963868.613282,4413.846191,4297.436035,4.0,4.0,100.0,,,,,,,,,,,,,,,-1.0
1708963868.621096,4397.436035,4283.589844,4.0,4.0,100.0,,,,,,,,,,,,,,,-1.0
1708963868.628911,4377.94873,4284.102539,4.0,4.0,100.0,,,,,34.005421,12.320545,6.426007,3.954341,1.509797,40.954296,15.912806,3.883553,2.221771,1.097183,-1.0
1708963868.636726,4401.538574,4297.436035,4.0,4.0,100.0,,,,,,,,,,,,,,,-1.0
1708963868.644541,4422.563965,4290.769043,4.0,4.0,100.0,,,,,,,,,,,,,,,-1.0
1708963868.652355,4376.922852,4266.666504,4.0,4.0,100.0,,,,,,,,,,,,,,,-1.0
1708963868.66017,4345.128418,4278.461426,4.0,4.0,100.0,,,,,,,,,,,,,,,-1.0
1708963868.667985,4388.717773,4313.846191,4.0,4.0,100.0,,,,,,,,,,,,,,,-1.0
1708963868.675799,4420.512695,4304.615234,4.0,4.0,100.0,,,,,,,,,,,,,,,-1.0
1708963868.683614,4394.871582,4276.922852,4.0,4.0,100.0,,,,,,,,,,,,,,,-1.0
1708963868.691429,4393.846191,4300.512695,4.0,4.0,100.0,,,,,,,,,,,,,,,-1.0
1708963868.699244,4423.077148,4328.717773,4.0,4.0,100.0,,,,,,,,,,,,,,,-1.0
1708963868.707058,4413.846191,4306.153809,4.0,4.0,100.0,,,,,,,,,,,,,,,-1.0
1708963868.714873,4381.538574,4282.563965,4.0,4.0,100.0,,,,,,,,,,,,,,,-1.0
1708963868.722688,4365.128418,4282.563965,4.0,4.0,100.0,,,,,,,,,,,,,,,-1.0
1708963868.730502,4355.384766,4264.615234,4.0,4.0,100.0,,,,,,,,,,,,,,,-1.0
1708963868.738317,4345.128418,4252.820313,4.0,4.0,100.0,,,,,,,,,,,,,,,-1.0
1708963868.746132,4362.563965,4262.05127,4.0,4.0,100.0,,,,,,,,,,,,,,,-1.0
1708963868.753947,4377.94873,4242.05127,4.0,4.0,100.0,,,,,30.708694,12.809823,7.568939,4.145449,1.730743,39.857754,17.228598,5.107082,2.930101,1.22724,-1.0
1708963868.761762,4343.589844,4233.846191,4.0,4.0,100.0,,,,,,,,,,,,,,,-1.0
1708963868.769576,4304.102539,4257.94873,4.0,4.0,100.0,,,,,,,,,,,,,,,-1.0
1708963868.777391,4315.384766,4234.358887,4.0,4.0,100.0,,,,,,,,,,,,,,,-1.0
1708963868.785206,4340.512695,4202.05127,4.0,4.0,100.0,,,,,,,,,,,,,,,-1.0
1708963868.79302,4331.282227,4235.897461,4.0,4.0,100.0,,,,,,,,,,,,,,,-1.0
1708963868.800835,4324.615234,4243.077148,4.0,4.0,100.0,,,,,,,,,,,,,,,-1.0
1708963868.80865,4338.461426,4205.128418,4.0,4.0,100.0,,,,,,,,,,,,,,,-1.0
1708963868.816465,4333.333496,4221.025879,4.0,4.0,100.0,,,,,,,,,,,,,,,-1.0
1708963868.824279,4312.307617,4233.846191,4.0,4.0,100.0,,,,,,,,,,,,,,,-1.0
1708963868.832094,4303.077148,4200.0,4.0,4.0,100.0,,,,,,,,,,,,,,,-1.0
1708963868.839909,4301.538574,4198.974121,4.0,4.0,100.0,,,,,,,,,,,,,,,-1.0
1708963868.847724,4315.897461,4225.128418,4.0,4.0,100.0,,,,,,,,,,,,,,,-1.0
1708963868.855538,4352.307617,4244.615234,4.0,4.0,100.0,,,,,,,,,,,,,,,-1.0
1708963868.863353,4378.461426,4271.794922,4.0,4.0,100.0,,,,,,,,,,,,,,,-1.0
1708963868.871168,4394.358887,4289.230957,4.0,4.0,100.0,,,,,,,,,,,,,,,-1.0
1708963868.878982,4434.871582,4305.641113,4.0,4.0,100.0,,,,,28.129948,13.401958,8.281684,4.255227,1.960778,37.828331,18.821648,6.039971,3.593488,1.355127,-1.0
1708963868.886797,4503.589844,4354.358887,4.0,4.0,100.0,,,,,,,,,,,,,,,-1.0
1708963868.894612,4570.256348,4391.282227,4.0,4.0,100.0,,,,,,,,,,,,,,,-1.0
1708963868.902427,4605.641113,4405.128418,4.0,4.0,100.0,,,,,,,,,,,,,,,-1.0
1708963868.910241,4639.487305,4428.205078,4.0,4.0,100.0,,,,,,,,,,,,,,,-1.0
1708963868.918056,4691.282227,4455.897461,4.0,4.0,100.0,,,,,,,,,,,,,,,-1.0
1708963868.925871,4693.333496,4465.641113,4.0,4.0,100.0,,,,,,,,,,,,,,,-1.0
1708963868.933685,4643.589844,4450.769043,4.0,4.0,100.0,,,,,,,,,,,,,,,-1.0
1708963868.9415,4646.153809,4442.563965,4.0,4.0,100.0,,,,,,,,,,,,,,,-1.0
1708963868.949315,4673.846191,4461.538574,4.0,4.0,100.0,,,,,,,,,,,,,,,-1.0
1708963868.95713,4645.641113,4476.922852,4.0,4.0,100.0,,,,,,,,,,,,,,,-1.0
1708963868.964944,4607.692383,4461.538574,4.0,4.0,100.0,,,,,,,,,,,,,,,-1.0
1708963868.972759,4583.077148,4439.487305,4.0,4.0,100.0,,,,,,,,,,,,,,,-1.0
1708963868.980574,4569.230957,4432.820313,4.0,4.0,100.0,,,,,,,,,,,,,,,-1.0
1708963868.988389,4605.128418,4451.794922,4.0,4.0,100.0,,,,,,,,,,,,,,,-1.0
1708963868.996203,4640.512695,4479.487305,4.0,4.0,100.0,,,,,,,,,,,,,,,-1.0
1708963869.004018,4633.846191,4478.461426,4.0,4.0,100.0,83.333336,4.0,4.0,,26.344669,14.081613,8.45801,4.247601,2.212773,35.282154,20.305981,6.350792,4.019658,1.46757,-1.0
1708963869.004018,4633.846191,4478.461426,4.0,4.0,100.0,83.333336,4.0,4.0,,26.344669,14.081613,8.45801,4.247601,2.212773,35.282154,20.305981,6.350792,4.019658,1.46757,-1.0
1708963869.011833,4661.025879,4476.922852,4.0,4.0,100.0,,,,,,,,,,,,,,,-1.0
1708963869.019647,4705.641113,4503.077148,4.0,4.0,100.0,,,,,,,,,,,,,,,-1.0
1708963869.027462,4705.128418,4530.256348,4.0,4.0,100.0,,,,,,,,,,,,,,,-1.0
1708963869.035277,4716.922852,4540.512695,4.0,4.0,100.0,,,,,,,,,,,,,,,-1.0
1708963869.043092,4770.769043,4541.538574,4.0,4.0,100.0,,,,,,,,,,,,,,,-1.0
1708963869.050907,4778.461426,4518.974121,4.0,4.0,100.0,,,,,,,,,,,,,,,-1.0
1708963869.058721,4718.974121,4506.666504,4.0,4.0,100.0,,,,,,,,,,,,,,,-1.0
1708963869.066536,4701.538574,4537.436035,4.0,4.0,100.0,,,,,,,,,,,,,,,-1.0
1708963869.074351,4734.358887,4542.563965,4.0,4.0,100.0,,,,,,,,,,,,,,,-1.0
1708963869.082165,4720.512695,4505.128418,4.0,4.0,100.0,,,,,,,,,,,,,,,-1.0
1708963869.08998,4679.487305,4491.282227,4.0,4.0,100.0,,,,,,,,,,,,,,,-1.0
1708963869.097795,4651.282227,4477.436035,4.0,4.0,100.0,,,,,,,,,,,,,,,-1.0
1708963869.10561,4599.487305,4445.128418,4.0,4.0,100.0,,,,,,,,,,,,,,,-1.0
1708963869.113424,4545.641113,4438.974121,4.0,4.0,100.0,,,,,,,,,,,,,,,-1.0
1708963869.121239,4528.717773,4429.743652,4.0,4.0,100.0,,,,,,,,,,,,,,,-1.0
1708963869.129054,4492.307617,4383.077148,4.0,4.0,100.0,,,,,27.486435,14.789697,8.175029,4.114712,2.497035,33.59016,21.081148,5.941698,4.062655,1.560601,-1.0
1708963869.136868,4422.05127,4346.153809,4.0,4.0,100.0,,,,,,,,,,,,,,,-1.0
1708963869.144683,4379.487305,4342.05127,4.0,4.0,100.0,,,,,,,,,,,,,,,-1.0
1708963869.152498,4369.230957,4337.436035,4.0,4.0,100.0,,,,,,,,,,,,,,,-1.0
1708963869.160313,4361.538574,4321.025879,4.0,4.0,100.0,,,,,,,,,,,,,,,-1.0
1708963869.168127,4349.743652,4297.436035,4.0,4.0,100.0,,,,,,,,,,,,,,,-1.0
1708963869.175942,4329.743652,4282.05127,4.0,4.0,100.0,,,,,,,,,,,,,,,-1.0
1708963869.183757,4313.846191,4285.641113,4.0,4.0,100.0,,,,,,,,,,,,,,,-1.0
1708963869.191572,4327.692383,4285.641113,4.0,4.0,100.0,,,,,,,,,,,,,,,-1.0
1708963869.199386,4356.922852,4278.974121,4.0,4.0,100.0,,,,,,,,,,,,,,,-1.0
1708963869.207201,4348.717773,4268.205078,4.0,4.0,100.0,,,,,,,,,,,,,,,-1.0
1708963869.215016,4297.436035,4256.410156,4.0,4.0,100.0,,,,,,,,,,,,,,,-1.0
1708963869.22283,4274.358887,4255.897461,4.0,4.0,100.0,,,,,,,,,,,,,,,-1.0
1708963869.230645,4290.769043,4227.179688,4.0,4.0,100.0,,,,,,,,,,,,,,,-1.0
1708963869.23846,4262.563965,4173.846191,4.0,4.0,100.0,,,,,,,,,,,,,,,-1.0
1708963869.246275,4185.128418,4151.282227,4.0,4.0,100.0,,,,,,,,,,,,,,,-1.0
1708963869.254089,4178.461426,4163.589844,4.0,4.0,100.0,,,,,31.674671,15.687682,7.559144,3.890425,2.800231,32.977554,20.580912,4.962205,3.69676,1.637619,-1.0
1708963869.261904,4220.512695,4162.05127,4.0,4.0,100.0,,,,,,,,,,,,,,,-1.0
1708963869.269719,4205.128418,4162.563965,4.0,4.0,100.0,,,,,,,,,,,,,,,-1.0
1708963869.277534,4176.922852,4161.538574,4.0,4.0,100.0,,,,,,,,,,,,,,,-1.0
1708963869.285348,4187.692383,4139.487305,4.0,4.0,100.0,,,,,,,,,,,,,,,-1.0
1708963869.293163,4182.05127,4131.794922,4.0,4.0,100.0,,,,,,,,,,,,,,,-1.0
1708963869.300978,4141.538574,4142.05127,4.0,4.0,100.0,,,,,,,,,,,,,,,-1.0
1708963869.308792,4121.538574,4146.666504,4.0,4.0,100.0,,,,,,,,,,,,,,,-1.0
1708963869.316607,4143.589844,4138.974121,4.0,4.0,100.0,,,,,,,,,,,,,,,-1.0
1708963869.324422,4169.230957,4138.974121,4.0,4.0,100.0,,,,,,,,,,,,,,,-1.0
1708963869.332237,4183.589844,4169.230957,4.0,4.0,100.0,,,,,,,,,,,,,,,-1.0
1708963869.340051,4183.589844,4194.871582,4.0,4.0,100.0,,,,,,,,,,,,,,,-1.0
1708963869.347866,4169.230957,4187.692383,4.0,4.0,100.0,,,,,,,,,,,,,,,-1.0
1708963869.355681,4163.077148,4180.512695,4.0,4.0,100.0,,,,,,,,,,,,,,,-1.0
1708963869.363495,4198.461426,4190.769043,4.0,4.0,100.0,,,,,,,,,,,,,,,-1.0
1708963869.37131,4248.717773,4196.922852,4.0,4.0,100.0,,,,,,,,,,,,,,,-1.0
1708963869.379125,4220.0,4195.897461,4.0,4.0,100.0,,,,,43.602695,16.998367,6.689931,3.635983,3.087006,33.972252,18.666128,3.700024,3.037987,1.707995,-1.0
1708963869.38694,4164.102539,4184.615234,4.0,4.0,100.0,,,,,,,,,,,,,,,-1.0
1708963869.394755,4196.410156,4186.666504,4.0,4.0,100.0,,,,,,,,,,,,,,,-1.0
1708963869.402569,4264.615234,4224.102539,4.0,4.0,100.0,,,,,,,,,,,,,,,-1.0
1708963869.410384,4273.333496,4258.461426,4.0,4.0,100.0,,,,,,,,,,,,,,,-1.0
1708963869.418199,4246.153809,4261.538574,4.0,4.0,100.0,,,,,,,,,,,,,,,-1.0
1708963869.426013,4245.128418,4255.384766,4.0,4.0,100.0,,,,,,,,,,,,,,,-1.0
1708963869.433828,4287.179688,4268.205078,4.0,4.0,100.0,,,,,,,,,,,,,,,-1.0
1708963869.441643,4341.025879,4298.461426,4.0,4.0,100.0,,,,,,,,,,,,,,,-1.0
1708963869.449458,4336.922852,4316.922852,4.0,4.0,100.0,,,,,,,,,,,,,,,-1.0
1708963869.457272,4300.512695,4313.846191,4.0,4.0,100.0,,,,,,,,,,,,,,,-1.0
1708963869.465087,4313.333496,4307.692383,4.0,4.0,100.0,,,,,,,,,,,,,,,-1.0
1708963869.472902,4354.358887,4322.05127,4.0,4.0,100.0,,,,,,,,,,,,,,,-1.0
1708963869.480717,4388.717773,4352.307617,4.0,4.0,100.0,,,,,,,,,,,,,,,-1.0
1708963869.488531,4395.897461,4373.333496,4.0,4.0,100.0,,,,,,,,,,,,,,,-1.0
1708963869.496346,4358.974121,4363.589844,4.0,4.0,100.0,,,,,,,,,,,,,,,-1.0
1708963869.504161,4345.641113,4344.102539,4.0,4.0,100.0,83.333336,4.0,4.0,,63.952457,18.999334,5.677319,3.458386,3.3278,36.186745,15.848355,2.567854,2.298598,1.782152,-1.0
1708963869.504161,4345.641113,4344.102539,4.0,4.0,100.0,83.333336,4.0,4.0,,63.952457,18.999334,5.677319,3.458386,3.3278,36.186745,15.848355,2.567854,2.298598,1.782152,-1.0
1708963869.511975,4376.922852,4346.153809,4.0,4.0,100.0,,,,,,,,,,,,,,,-1.0
1708963869.51979,4379.487305,4363.589844,4.0,4.0,100.0,,,,,,,,,,,,,,,-1.0
1708963869.527605,4365.128418,4375.897461,4.0,4.0,100.0,,,,,,,,,,,,,,,-1.0
1708963869.53542,4406.153809,4371.282227,4.0,4.0,100.0,,,,,,,,,,,,,,,-1.0
1708963869.543234,4438.461426,4366.666504,4.0,4.0,100.0,,,,,,,,,,,,,,,-1.0
1708963869.551049,4414.358887,4387.692383,4.0,4.0,100.0,,,,,,,,,,,,,,,-1.0
1708963869.558864,4400.0,4404.102539,4.0,4.0,100.0,,,,,,,,,,,,,,,-1.0
1708963869.566678,4402.563965,4372.307617,4.0,4.0,100.0,,,,,,,,,,,,,,,-1.0
1708963869.574493,4396.410156,4352.820313,4.0,4.0,100.0,,,,,,,,,,,,,,,-1.0
1708963869.582308,4405.128418,4393.846191,4.0,4.0,100.0,,,,,,,,,,,,,,,-1.0
1708963869.590123,4417.436035,4409.230957,4.0,4.0,100.0,,,,,,,,,,,,,,,-1.0
1708963869.597937,4424.102539,4381.538574,4.0,4.0,100.0,,,,,,,,,,,,,,,-1.0
1708963869.605752,4436.922852,4398.974121,4.0,4.0,100.0,,,,,,,,,,,,,,,-1.0
1708963869.613567,4429.230957,4423.589844,4.0,4.0,100.0,,,,,,,,,,,,,,,-1.0
1708963869.621382,4417.94873,4406.153809,4.0,4.0,100.0,,,,,,,,,,,,,,,-1.0
1708963869.629196,4437.436035,4401.025879,4.0,4.0,100.0,,,,,92.142395,21.297771,4.599432,3.455866,3.521698,39.866497,12.836535,1.821504,1.69453,1.859821,-1.0
1708963869.637011,4446.666504,4407.692383,4.0,4.0,100.0,,,,,,,,,,,,,,,-1.0
1708963869.644826,4429.743652,4396.410156,4.0,4.0,100.0,,,,,,,,,,,,,,,-1.0
1708963869.65264,4433.846191,4400.0,4.0,4.0,100.0,,,,,,,,,,,,,,,-1.0
1708963869.660455,4443.077148,4404.615234,4.0,4.0,100.0,,,,,,,,,,,,,,,-1.0
1708963869.66827,4416.922852,4387.179688,4.0,4.0,100.0,,,,,,,,,,,,,,,-1.0
1708963869.676085,4416.922852,4395.384766,4.0,4.0,100.0,,,,,,,,,,,,,,,-1.0
1708963869.6839,4449.743652,4407.179688,4.0,4.0,100.0,,,,,,,,,,,,,,,-1.0
1708963869.691714,4449.743652,4390.256348,4.0,4.0,100.0,,,,,,,,,,,,,,,-1.0
1708963869.699529,4418.461426,4397.436035,4.0,4.0,100.0,,,,,,,,,,,,,,,-1.0
1708963869.707344,4419.487305,4418.974121,4.0,4.0,100.0,,,,,,,,,,,,,,,-1.0
1708963869.715158,4455.897461,4422.05127,4.0,4.0,100.0,,,,,,,,,,,,,,,-1.0
1708963869.722973,4468.717773,4443.077148,4.0,4.0,100.0,,,,,,,,,,,,,,,-1.0
1708963869.730788,4476.922852,4458.461426,4.0,4.0,100.0,,,,,,,,,,,,,,,-1.0
1708963869.738603,4478.461426,4436.410156,4.0,4.0,100.0,,,,,,,,,,,,,,,-1.0
1708963869.746417,4464.615234,4442.05127,4.0,4.0,100.0,,,,,,,,,,,,,,,-1.0
1708963869.754232,4470.769043,4464.615234,4.0,4.0,100.0,,,,,121.593628,22.987137,3.640616,3.6401,3.718181,43.680351,10.088954,1.581674,1.33505,1.927138,-1.0
1708963869.762047,4473.846191,4438.974121,4.0,4.0,100.0,,,,,,,,,,,,,,,-1.0
1708963869.769861,4470.256348,4426.153809,4.0,4.0,100.0,,,,,,,,,,,,,,,-1.0
1708963869.777676,4473.846191,4451.794922,4.0,4.0,100.0,,,,,,,,,,,,,,,-1.0
1708963869.785491,4473.333496,4438.461426,4.0,4.0,100.0,,,,,,,,,,,,,,,-1.0
1708963869.793306,4444.615234,4403.589844,4.0,4.0,100.0,,,,,,,,,,,,,,,-1.0
1708963869.80112,4405.128418,4391.282227,4.0,4.0,100.0,,,,,,,,,,,,,,,-1.0
1708963869.808935,4386.666504,4368.717773,4.0,4.0,100.0,,,,,,,,,,,,,,,-1.0
1708963869.81675,4405.128418,4355.897461,4.0,4.0,100.0,,,,,,,,,,,,,,,-1.0
1708963869.824565,4439.487305,4380.0,4.0,4.0,100.0,,,,,,,,,,,,,,,-1.0
1708963869.832379,4436.410156,4389.743652,4.0,4.0,100.0,,,,,,,,,,,,,,,-1.0
1708963869.840194,4425.128418,4385.128418,4.0,4.0,100.0,,,,,,,,,,,,,,,-1.0
1708963869.848009,4424.615234,4400.512695,4.0,4.0,100.0,,,,,,,,,,,,,,,-1.0
1708963869.855823,4429.230957,4417.436035,4.0,4.0,100.0,,,,,,,,,,,,,,,-1.0
1708963869.863638,4453.846191,4425.128418,4.0,4.0,100.0,,,,,,,,,,,,,,,-1.0
1708963869.871453,4468.717773,4424.615234,4.0,4.0,100.0,,,,,,,,,,,,,,,-1.0
1708963869.879268,4471.282227,4417.436035,4.0,4.0,100.0,,,,,142.838821,23.030767,3.003691,3.955883,3.972913,45.527336,7.755145,1.794955,1.197438,1.969371,-1.0
1708963869.887082,4480.0,4427.179688,4.0,4.0,100.0,,,,,,,,,,,,,,,-1.0
1708963869.894897,4454.871582,4429.743652,4.0,4.0,100.0,,,,,,,,,,,,,,,-1.0
1708963869.902712,4425.128418,4416.410156,4.0,4.0,100.0,,,,,,,,,,,,,,,-1.0
1708963869.910527,4433.846191,4427.692383,4.0,4.0,100.0,,,,,,,,,,,,,,,-1.0
1708963869.918341,4443.589844,4430.769043,4.0,4.0,100.0,,,,,,,,,,,,,,,-1.0
1708963869.926156,4452.307617,4407.692383,4.0,4.0,100.0,,,,,,,,,,,,,,,-1.0
1708963869.933971,4457.94873,4417.436035,4.0,4.0,100.0,,,,,,,,,,,,,,,-1.0
1708963869.941785,4439.487305,4427.692383,4.0,4.0,100.0,,,,,,,,,,,,,,,-1.0
1708963869.9496,4432.307617,4388.717773,4.0,4.0,100.0,,,,,,,,,,,,,,,-1.0
1708963869.957415,4447.179688,4368.205078,4.0,4.0,100.0,,,,,,,,,,,,,,,-1.0
1708963869.96523,4424.102539,4382.563965,4.0,4.0,100.0,,,,,,,,,,,,,,,-1.0
1708963869.973044,4389.743652,4374.358887,4.0,4.0,100.0,,,,,,,,,,,,,,,-1.0
1708963869.980859,4395.897461,4362.563965,4.0,4.0,100.0,,,,,,,,,,,,,,,-1.0
1708963869.988674,4412.307617,4393.333496,4.0,4.0,100.0,,,,,,,,,,,,,,,-1.0
1708963869.996488,4434.358887,4426.153809,4.0,4.0,100.0,,,,,,,,,,,,,,,-1.0
1708963870.004303,4454.358887,4422.563965,4.0,4.0,100.0,83.333336,4.0,4.0,,148.319534,20.887135,2.786225,4.31128,4.291787,43.6371,5.779914,2.297552,1.178913,1.981299,-1.0
1708963870.004303,4454.358887,4422.563965,4.0,4.0,100.0,83.333336,4.0,4.0,,148.319534,20.887135,2.786225,4.31128,4.291787,43.6371,5.779914,2.297552,1.178913,1.981299,-1.0
1708963870.012118,4436.410156,4407.692383,4.0,4.0,100.0,,,,,,,,,,,,,,,-1.0
1708963870.019933,4398.974121,4398.461426,4.0,4.0,100.0,,,,,,,,,,,,,,,-1.0
1708963870.027748,4415.384766,4395.384766,4.0,4.0,100.0,,,,,,,,,,,,,,,-1.0
1708963870.035562,4474.871582,4418.974121,4.0,4.0,100.0,,,,,,,,,,,,,,,-1.0
1708963870.043377,4493.846191,4448.717773,4.0,4.0,100.0,,,,,,,,,,,,,,,-1.0
1708963870.051192,4504.102539,4456.922852,4.0,4.0,100.0,,,,,,,,,,,,,,,-1.0
1708963870.059006,4527.179688,4464.615234,4.0,4.0,100.0,,,,,,,,,,,,,,,-1.0
1708963870.066821,4501.025879,4463.589844,4.0,4.0,100.0,,,,,,,,,,,,,,,-1.0
1708963870.074636,4491.282227,4444.102539,4.0,4.0,100.0,,,,,,,,,,,,,,,-1.0
1708963870.082451,4570.769043,4454.358887,4.0,4.0,100.0,,,,,,,,,,,,,,,-1.0
1708963870.090265,4618.461426,4484.615234,4.0,4.0,100.0,,,,,,,,,,,,,,,-1.0
1708963870.09808,4596.922852,4471.794922,4.0,4.0,100.0,,,,,,,,,,,,,,,-1.0
1708963870.105895,4606.153809,4451.282227,4.0,4.0,100.0,,,,,,,,,,,,,,,-1.0
1708963870.11371,4614.358887,4463.589844,4.0,4.0,100.0,,,,,,,,,,,,,,,-1.0
1708963870.121524,4591.794922,4464.102539,4.0,4.0,100.0,,,,,,,,,,,,,,,-1.0
1708963870.129339,4586.666504,4445.128418,4.0,4.0,100.0,,,,,135.593063,17.000767,2.905355,4.638681,4.602982,38.22118,4.186114,2.869422,1.178331,1.969843,-1.0
1708963870.137154,4604.102539,4467.179688,4.0,4.0,100.0,,,,,,,,,,,,,,,-1.0
1708963870.144968,4649.743652,4514.358887,4.0,4.0,100.0,,,,,,,,,,,,,,,-1.0
1708963870.152783,4676.410156,4515.384766,4.0,4.0,100.0,,,,,,,,,,,,,,,-1.0
1708963870.160598,4653.846191,4509.230957,4.0,4.0,100.0,,,,,,,,,,,,,,,-1.0
1708963870.168413,4649.743652,4536.922852,4.0,4.0,100.0,,,,,,,,,,,,,,,-1.0
1708963870.176227,4646.666504,4536.922852,4.0,4.0,100.0,,,,,,,,,,,,,,,-1.0
1708963870.184042,4620.512695,4486.666504,4.0,4.0,100.0,,,,,,,,,,,,,,,-1.0
1708963870.191857,4585.641113,4442.05127,4.0,4.0,100.0,,,,,,,,,,,,,,,-1.0
1708963870.199671,4533.333496,4447.179688,4.0,4.0,100.0,,,,,,,,,,,,,,,-1.0
1708963870.207486,4535.897461,4478.974121,4.0,4.0,100.0,,,,,,,,,,,,,,,-1.0
1708963870.215301,4625.128418,4486.153809,4.0,4.0,100.0,,,,,,,,,,,,,,,-1.0
1708963870.223116,4667.692383,4489.743652,4.0,4.0,100.0,,,,,,,,,,,,,,,-1.0
1708963870.23093,4611.282227,4515.384766,4.0,4.0,100.0,,,,,,,,,,,,,,,-1.0
1708963870.238745,4565.641113,4498.974121,4.0,4.0,100.0,,,,,,,,,,,,,,,-1.0
1708963870.24656,4556.922852,4455.384766,4.0,4.0,100.0,,,,,,,,,,,,,,,-1.0
1708963870.254375,4556.922852,4452.820313,4.0,4.0,100.0,,,,,108.722763,12.460608,3.146374,4.93091,4.770327,30.967445,3.01361,3.337127,1.157537,1.948007,-1.0
1708963870.262189,4534.871582,4448.205078,4.0,4.0,100.0,,,,,,,,,,,,,,,-1.0
1708963870.270004,4499.487305,4432.307617,4.0,4.0,100.0,,,,,,,,,,,,,,,-1.0
1708963870.277819,4489.743652,4447.179688,4.0,4.0,100.0,,,,,,,,,,,,,,,-1.0
1708963870.285633,4485.641113,4457.436035,4.0,4.0,100.0,,,,,,,,,,,,,,,-1.0
1708963870.293448,4468.717773,4449.230957,4.0,4.0,100.0,,,,,,,,,,,,,,,-1.0
1708963870.301263,4445.641113,4455.897461,4.0,4.0,100.0,,,,,,,,,,,,,,,-1.0
1708963870.309078,4433.846191,4459.487305,4.0,4.0,100.0,,,,,,,,,,,,,,,-1.0
1708963870.316893,4429.743652,4440.512695,4.0,4.0,100.0,,,,,,,,,,,,,,,-1.0
1708963870.324707,4406.153809,4417.94873,4.0,4.0,100.0,,,,,,,,,,,,,,,-1.0
1708963870.332522,4382.563965,4425.641113,4.0,4.0,100.0,,,,,,,,,,,,,,,-1.0
1708963870.340337,4432.307617,4462.563965,4.0,4.0,100.0,,,,,,,,,,,,,,,-1.0
1708963870.348151,4487.179688,4465.641113,4.0,4.0,100.0,,,,,,,,,,,,,,,-1.0
1708963870.355966,4441.025879,4426.153809,4.0,4.0,100.0,,,,,,,,,,,,,,,-1.0
1708963870.363781,4376.922852,4403.589844,4.0,4.0,100.0,,,,,,,,,,,,,,,-1.0
1708963870.371596,4359.487305,4404.102539,4.0,4.0,100.0,,,,,,,,,,,,,,,-1.0
1708963870.37941,4358.461426,4386.666504,4.0,4.0,100.0,,,,,76.777237,8.322044,3.306982,5.261679,4.663891,24.561825,2.186278,3.641825,1.170404,1.923119,-1.0
1708963870.387225,4378.974121,4353.846191,4.0,4.0,100.0,,,,,,,,,,,,,,,-1.0
1708963870.39504,4396.410156,4349.230957,4.0,4.0,100.0,,,,,,,,,,,,,,,-1.0
1708963870.402854,4374.358887,4377.94873,4.0,4.0,100.0,,,,,,,,,,,,,,,-1.0
1708963870.410669,4353.333496,4387.179688,4.0,4.0,100.0,,,,,,,,,,,,,,,-1.0
1708963870.418484,4353.846191,4381.025879,4.0,4.0,100.0,,,,,,,,,,,,,,,-1.0
1708963870.426299,4375.897461,4390.256348,4.0,4.0,100.0,,,,,,,,,,,,,,,-1.0
1708963870.434113,4398.461426,4377.436035,4.0,4.0,100.0,,,,,,,,,,,,,,,-1.0
1708963870.441928,4362.563965,4367.692383,4.0,4.0,100.0,,,,,,,,,,,,,,,-1.0
1708963870.449743,4346.153809,4393.333496,4.0,4.0,100.0,,,,,,,,,,,,,,,-1.0
1708963870.457558,4412.307617,4411.794922,4.0,4.0,100.0,,,,,,,,,,,,,,,-1.0
1708963870.465372,4419.487305,4397.94873,4.0,4.0,100.0,,,,,,,,,,,,,,,-1.0
1708963870.473187,4353.333496,4382.563965,4.0,4.0,100.0,,,,,,,,,,,,,,,-1.0
1708963870.481002,4360.0,4391.282227,4.0,4.0,100.0,,,,,,,,,,,,,,,-1.0
1708963870.488816,4410.769043,4423.589844,4.0,4.0,100.0,,,,,,,,,,,,,,,-1.0
1708963870.496631,4432.307617,4442.563965,4.0,4.0,100.0,,,,,,,,,,,,,,,-1.0
1708963870.504446,4435.384766,4406.153809,4.0,4.0,100.0,83.333336,4.0,4.0,,49.304886,5.603566,3.517673,5.791949,4.265808,20.77331,1.839921,3.970073,1.327462,1.894414,-1.0
1708963870.504446,4435.384766,4406.153809,4.0,4.0,100.0,83.333336,4.0,4.0,,49.304886,5.603566,3.517673,5.791949,4.265808,20.77331,1.839921,3.970073,1.327462,1.894414,-1.0
1708963870.512261,4414.358887,4374.871582,4.0,4.0,100.0,,,,,,,,,,,,,,,-1.0
1708963870.520075,4402.05127,4407.692383,4.0,4.0,100.0,,,,,,,,,,,,,,,-1.0
1708963870.52789,4412.307617,4450.256348,4.0,4.0,100.0,,,,,,,,,,,,,,,-1.0
1708963870.535705,4411.282227,4455.897461,4.0,4.0,100.0,,,,,,,,,,,,,,,-1.0
1708963870.54352,4413.846191,4447.692383,4.0,4.0,100.0,,,,,,,,,,,,,,,-1.0
1708963870.551334,4436.922852,4451.282227,4.0,4.0,100.0,,,,,,,,,,,,,,,-1.0
1708963870.559149,4446.666504,4452.820313,4.0,4.0,100.0,,,,,,,,,,,,,,,-1.0
1708963870.566964,4426.153809,4456.922852,4.0,4.0,100.0,,,,,,,,,,,,,,,-1.0
1708963870.574778,4410.256348,4461.538574,4.0,4.0,100.0,,,,,,,,,,,,,,,-1.0
1708963870.582593,4398.974121,4437.94873,4.0,4.0,100.0,,,,,,,,,,,,,,,-1.0
1708963870.590408,4381.538574,4404.615234,4.0,4.0,100.0,,,,,,,,,,,,,,,-1.0
1708963870.598223,4371.282227,4378.974121,4.0,4.0,100.0,,,,,,,,,,,,,,,-1.0
1708963870.606037,4388.717773,4374.358887,4.0,4.0,100.0,,,,,,,,,,,,,,,-1.0
1708963870.613852,4396.410156,4389.230957,4.0,4.0,100.0,,,,,,,,,,,,,,,-1.0
1708963870.621667,4362.563965,4384.102539,4.0,4.0,100.0,,,,,,,,,,,,,,,-1.0
1708963870.629482,4346.153809,4371.794922,4.0,4.0,100.0,,,,,31.6245,4.696579,4.077266,6.683646,3.70995,19.661037,1.986557,4.587512,1.719592,1.862427,-1.0
1708963870.637296,4376.410156,4390.769043,4.0,4.0,100.0,,,,,,,,,,,,,,,-1.0
1708963870.645111,4383.589844,4403.589844,4.0,4.0,100.0,,,,,,,,,,,,,,,-1.0
1708963870.652926,4357.436035,4387.692383,4.0,4.0,100.0,,,,,,,,,,,,,,,-1.0
1708963870.660741,4363.077148,4383.589844,4.0,4.0,100.0,,,,,,,,,,,,,,,-1.0
1708963870.668555,4395.384766,4381.025879,4.0,4.0,100.0,,,,,,,,,,,,,,,-1.0
1708963870.67637,4401.025879,4375.897461,4.0,4.0,100.0,,,,,,,,,,,,,,,-1.0
1708963870.684185,4377.94873,4381.538574,4.0,4.0,100.0,,,,,,,,,,,,,,,-1.0
1708963870.691999,4374.871582,4378.974121,4.0,4.0,100.0,,,,,,,,,,,,,,,-1.0
1708963870.699814,4398.461426,4377.94873,4.0,4.0,100.0,,,,,,,,,,,,,,,-1.0
1708963870.707629,4406.666504,4379.487305,4.0,4.0,100.0,,,,,,,,,,,,,,,-1.0
1708963870.715443,4402.05127,4354.871582,4.0,4.0,100.0,,,,,,,,,,,,,,,-1.0
1708963870.723258,4413.846191,4329.743652,4.0,4.0,100.0,,,,,,,,,,,,,,,-1.0
1708963870.731073,4451.282227,4359.487305,4.0,4.0,100.0,,,,,,,,,,,,,,,-1.0
1708963870.738888,4494.871582,4409.230957,4.0,4.0,100.0,,,,,,,,,,,,,,,-1.0
1708963870.746703,4499.487305,4412.307617,4.0,4.0,100.0,,,,,,,,,,,,,,,-1.0
1708963870.754517,4479.487305,4395.897461,4.0,4.0,100.0,,,,,23.581053,5.143067,5.172927,7.970631,3.239502,19.910477,2.434438,5.630789,2.336755,1.843658,-1.0
1708963870.762332,4502.563965,4406.666504,4.0,4.0,100.0,,,,,,,,,,,,,,,-1.0
1708963870.770147,4538.974121,4427.179688,4.0,4.0,100.0,,,,,,,,,,,,,,,-1.0
1708963870.777961,4510.256348,4408.205078,4.0,4.0,100.0,,,,,,,,,,,,,,,-1.0
1708963870.785776,4496.922852,4369.230957,4.0,4.0,100.0,,,,,,,,,,,,,,,-1.0
1708963870.793591,4539.487305,4365.641113,4.0,4.0,100.0,,,,,,,,,,,,,,,-1.0
1708963870.801406,4516.410156,4355.897461,4.0,4.0,100.0,,,,,,,,,,,,,,,-1.0
1708963870.80922,4473.333496,4336.922852,4.0,4.0,100.0,,,,,,,,,,,,,,,-1.0
1708963870.817035,4521.538574,4397.94873,4.0,4.0,100.0,,,,,,,,,,,,,,,-1.0
1708963870.82485,4575.384766,4470.256348,4.0,4.0,100.0,,,,,,,,,,,,,,,-1.0
1708963870.832665,4566.153809,4445.641113,4.0,4.0,100.0,,,,,,,,,,,,,,,-1.0
1708963870.840479,4541.538574,4406.153809,4.0,4.0,100.0,,,,,,,,,,,,,,,-1.0
1708963870.848294,4521.025879,4406.153809,4.0,4.0,100.0,,,,,,,,,,,,,,,-1.0
1708963870.856109,4493.846191,4383.589844,4.0,4.0,100.0,,,,,,,,,,,,,,,-1.0
1708963870.863923,4485.128418,4358.974121,4.0,4.0,100.0,,,,,,,,,,,,,,,-1.0
1708963870.871738,4474.871582,4355.897461,4.0,4.0,100.0,,,,,,,,,,,,,,,-1.0
1708963870.879553,4467.692383,4340.0,4.0,4.0,100.0,,,,,21.065451,6.136414,6.744949,9.45146,3.05971,19.976938,3.189372,6.981851,3.057932,1.864751,-1.0
1708963870.887368,4464.615234,4338.974121,4.0,4.0,100.0,,,,,,,,,,,,,,,-1.0
1708963870.895182,4449.743652,4346.153809,4.0,4.0,100.0,,,,,,,,,,,,,,,-1.0
1708963870.902997,4469.230957,4343.589844,4.0,4.0,100.0,,,,,,,,,,,,,,,-1.0
1708963870.910812,4510.256348,4355.897461,4.0,4.0,100.0,,,,,,,,,,,,,,,-1.0
1708963870.918626,4523.589844,4363.077148,4.0,4.0,100.0,,,,,,,,,,,,,,,-1.0
1708963870.926441,4559.487305,4375.897461,4.0,4.0,100.0,,,,,,,,,,,,,,,-1.0
1708963870.934256,4647.179688,4421.025879,4.0,4.0,100.0,,,,,,,,,,,,,,,-1.0
1708963870.942071,4725.641113,4470.769043,4.0,4.0,100.0,,,,,,,,,,,,,,,-1.0
1708963870.949885,4752.307617,4495.384766,4.0,4.0,100.0,,,,,,,,,,,,,,,-1.0
1708963870.9577,4761.538574,4511.282227,4.0,4.0,100.0,,,,,,,,,,,,,,,-1.0
1708963870.965515,4770.769043,4531.282227,4.0,4.0,100.0,,,,,,,,,,,,,,,-1.0
1708963870.97333,4777.94873,4551.282227,4.0,4.0,100.0,,,,,,,,,,,,,,,-1.0
1708963870.981144,4788.205078,4555.384766,4.0,4.0,100.0,,,,,,,,,,,,,,,-1.0
1708963870.988959,4773.846191,4538.461426,4.0,4.0,100.0,,,,,,,,,,,,,,,-1.0
1708963870.996774,4707.692383,4528.717773,4.0,4.0,100.0,,,,,,,,,,,,,,,-1.0
1708963871.004588,4638.974121,4517.94873,4.0,4.0,100.0,83.333336,4.0,4.0,,19.714748,7.072594,8.378697,10.726738,3.227511,19.263325,4.392859,8.277018,3.712431,1.938256,-1.0
1708963871.004588,4638.974121,4517.94873,4.0,4.0,100.0,83.333336,4.0,4.0,,19.714748,7.072594,8.378697,10.726738,3.227511,19.263325,4.392859,8.277018,3.712431,1.938256,-1.0
1708963871.012403,4583.077148,4483.077148,4.0,4.0,100.0,,,,,,,,,,,,,,,-1.0
1708963871.020218,4522.563965,4453.333496,4.0,4.0,100.0,,,,,,,,,,,,,,,-1.0
1708963871.028033,4486.153809,4430.769043,4.0,4.0,100.0,,,,,,,,,,,,,,,-1.0
1708963871.035848,4492.307617,4406.666504,4.0,4.0,100.0,,,,,,,,,,,,,,,-1.0
1708963871.043662,4474.871582,4397.94873,4.0,4.0,100.0,,,,,,,,,,,,,,,-1.0
1708963871.051477,4424.615234,4395.897461,4.0,4.0,100.0,,,,,,,,,,,,,,,-1.0
1708963871.059292,4390.769043,4381.538574,4.0,4.0,100.0,,,,,,,,,,,,,,,-1.0
1708963871.067106,4382.05127,4366.153809,4.0,4.0,100.0,,,,,,,,,,,,,,,-1.0
1708963871.074921,4389.743652,4355.897461,4.0,4.0,100.0,,,,,,,,,,,,,,,-1.0
1708963871.082736,4385.128418,4349.743652,4.0,4.0,100.0,,,,,,,,,,,,,,,-1.0
1708963871.090551,4350.256348,4347.179688,4.0,4.0,100.0,,,,,,,,,,,,,,,-1.0
1708963871.098365,4305.128418,4324.615234,4.0,4.0,100.0,,,,,,,,,,,,,,,-1.0
1708963871.10618,4290.256348,4312.307617,4.0,4.0,100.0,,,,,,,,,,,,,,,-1.0
1708963871.113995,4309.230957,4335.897461,4.0,4.0,100.0,,,,,,,,,,,,,,,-1.0
1708963871.121809,4315.897461,4328.717773,4.0,4.0,100.0,,,,,,,,,,,,,,,-1.0
1708963871.129624,4286.153809,4288.205078,4.0,4.0,100.0,,,,,19.164587,7.939218,9.468123,11.361968,3.639333,18.696812,6.060305,9.209151,4.188917,2.054813,-1.0
1708963871.137439,4253.846191,4278.974121,4.0,4.0,100.0,,,,,,,,,,,,,,,-1.0
1708963871.145254,4261.025879,4292.307617,4.0,4.0,100.0,,,,,,,,,,,,,,,-1.0
1708963871.153068,4287.179688,4301.538574,4.0,4.0,100.0,,,,,,,,,,,,,,,-1.0
1708963871.160883,4293.333496,4301.538574,4.0,4.0,100.0,,,,,,,,,,,,,,,-1.0
1708963871.168698,4258.974121,4273.846191,4.0,4.0,100.0,,,,,,,,,,,,,,,-1.0
1708963871.176513,4227.179688,4254.871582,4.0,4.0,100.0,,,,,,,,,,,,,,,-1.0
1708963871.184327,4241.025879,4247.692383,4.0,4.0,100.0,,,,,,,,,,,,,,,-1.0
1708963871.192142,4221.538574,4201.025879,4.0,4.0,100.0,,,,,,,,,,,,,,,-1.0
1708963871.199957,4163.589844,4189.743652,4.0,4.0,100.0,,,,,,,,,,,,,,,-1.0
1708963871.207771,4185.128418,4247.179688,4.0,4.0,100.0,,,,,,,,,,,,,,,-1.0
1708963871.215586,4272.307617,4271.794922,4.0,4.0,100.0,,,,,,,,,,,,,,,-1.0
1708963871.223401,4302.05127,4271.794922,4.0,4.0,100.0,,,,,,,,,,,,,,,-1.0
1708963871.231216,4290.256348,4312.820313,4.0,4.0,100.0,,,,,,,,,,,,,,,-1.0
1708963871.23903,4324.615234,4347.179688,4.0,4.0,100.0,,,,,,,,,,,,,,,-1.0
1708963871.246845,4349.743652,4326.666504,4.0,4.0,100.0,,,,,,,,,,,,,,,-1.0
1708963871.25466,4307.179688,4293.333496,4.0,4.0,100.0,,,,,27.230198,9.463684,9.578557,11.136636,4.079444,20.886082,8.273563,9.700529,4.458747,2.18225,-1.0
1708963871.262475,4273.846191,4292.307617,4.0,4.0,100.0,,,,,,,,,,,,,,,-1.0
1708963871.270289,4277.436035,4298.974121,4.0,4.0,100.0,,,,,,,,,,,,,,,-1.0
1708963871.278104,4268.205078,4282.563965,4.0,4.0,100.0,,,,,,,,,,,,,,,-1.0
1708963871.285919,4261.025879,4250.256348,4.0,4.0,100.0,,,,,,,,,,,,,,,-1.0
1708963871.293733,4234.358887,4219.487305,4.0,4.0,100.0,,,,,,,,,,,,,,,-1.0
1708963871.301548,4183.077148,4227.179688,4.0,4.0,100.0,,,,,,,,,,,,,,,-1.0
1708963871.309363,4221.538574,4267.179688,4.0,4.0,100.0,,,,,,,,,,,,,,,-1.0
1708963871.317178,4302.05127,4263.589844,4.0,4.0,100.0,,,,,,,,,,,,,,,-1.0
1708963871.324992,4264.615234,4234.871582,4.0,4.0,100.0,,,,,,,,,,,,,,,-1.0
1708963871.332807,4221.025879,4253.333496,4.0,4.0,100.0,,,,,,,,,,,,,,,-1.0
1708963871.340622,4262.563965,4266.666504,4.0,4.0,100.0,,,,,,,,,,,,,,,-1.0
1708963871.348436,4267.692383,4248.717773,4.0,4.0,100.0,,,,,,,,,,,,,,,-1.0
1708963871.356251,4253.333496,4241.025879,4.0,4.0,100.0,,,,,,,,,,,,,,,-1.0
1708963871.364066,4276.410156,4233.846191,4.0,4.0,100.0,,,,,,,,,,,,,,,-1.0
1708963871.371881,4270.256348,4244.615234,4.0,4.0,100.0,,,,,,,,,,,,,,,-1.0
1708963871.379696,4249.230957,4272.820313,4.0,4.0,100.0,,,,,54.92091,12.496639,8.759311,10.168805,4.340315,29.140724,10.944751,9.956477,4.547419,2.2719,-1.0
1708963871.38751,4256.922852,4255.897461,4.0,4.0,100.0,,,,,,,,,,,,,,,-1.0
1708963871.395325,4252.307617,4226.666504,4.0,4.0,100.0,,,,,,,,,,,,,,,-1.0
1708963871.40314,4243.077148,4249.743652,4.0,4.0,100.0,,,,,,,,,,,,,,,-1.0
1708963871.410954,4248.717773,4262.563965,4.0,4.0,100.0,,,,,,,,,,,,,,,-1.0
1708963871.418769,4252.307617,4242.05127,4.0,4.0,100.0,,,,,,,,,,,,,,,-1.0
1708963871.426584,4274.358887,4243.077148,4.0,4.0,100.0,,,,,,,,,,,,,,,-1.0
1708963871.434399,4269.743652,4246.153809,4.0,4.0,100.0,,,,,,,,,,,,,,,-1.0
1708963871.442213,4225.128418,4225.128418,4.0,4.0,100.0,,,,,,,,,,,,,,,-1.0
1708963871.450028,4224.102539,4201.025879,4.0,4.0,100.0,,,,,,,,,,,,,,,-1.0
1708963871.457843,4240.512695,4195.384766,4.0,4.0,100.0,,,,,,,,,,,,,,,-1.0
1708963871.465658,4221.538574,4212.307617,4.0,4.0,100.0,,,,,,,,,,,,,,,-1.0
1708963871.473472,4204.615234,4217.436035,4.0,4.0,100.0,,,,,,,,,,,,,,,-1.0
1708963871.481287,4194.871582,4177.94873,4.0,4.0,100.0,,,,,,,,,,,,,,,-1.0
1708963871.489102,4182.05127,4140.0,4.0,4.0,100.0,,,,,,,,,,,,,,,-1.0
1708963871.496916,4168.717773,4146.153809,4.0,4.0,100.0,,,,,,,,,,,,,,,-1.0
1708963871.504731,4157.94873,4162.05127,4.0,4.0,100.0,83.333336,4.0,4.0,,105.913895,17.41106,7.426384,8.841884,4.339293,44.995815,13.787512,10.184305,4.481773,2.289387,-1.0
1708963871.504731,4157.94873,4162.05127,4.0,4.0,100.0,83.333336,4.0,4.0,,105.913895,17.41106,7.426384,8.841884,4.339293,44.995815,13.787512,10.184305,4.481773,2.289387,-1.0
1708963871.512546,4170.256348,4165.128418,4.0,4.0,100.0,,,,,,,,,,,,,,,-1.0
1708963871.520361,4191.794922,4148.205078,4.0,4.0,100.0,,,,,,,,,,,,,,,-1.0
1708963871.528175,4203.589844,4135.384766,4.0,4.0,100.0,,,,,,,,,,,,,,,-1.0
1708963871.53599,4240.512695,4161.025879,4.0,4.0,100.0,,,,,,,,,,,,,,,-1.0
1708963871.543805,4271.794922,4185.641113,4.0,4.0,100.0,,,,,,,,,,,,,,,-1.0
1708963871.551619,4249.743652,4188.205078,4.0,4.0,100.0,,,,,,,,,,,,,,,-1.0
1708963871.559434,4235.384766,4200.512695,4.0,4.0,100.0,,,,,,,,,,,,,,,-1.0
1708963871.567249,4271.794922,4211.282227,4.0,4.0,100.0,,,,,,,,,,,,,,,-1.0
1708963871.575064,4310.256348,4195.384766,4.0,4.0,100.0,,,,,,,,,,,,,,,-1.0
1708963871.582878,4332.820313,4196.410156,4.0,4.0,100.0,,,,,,,,,,,,,,,-1.0
1708963871.590693,4358.974121,4234.358887,4.0,4.0,100.0,,,,,,,,,,,,,,,-1.0
1708963871.598508,4392.307617,4265.641113,4.0,4.0,100.0,,,,,,,,,,,,,,,-1.0
1708963871.606323,4413.333496,4287.179688,4.0,4.0,100.0,,,,,,,,,,,,,,,-1.0
1708963871.614137,4410.256348,4306.153809,4.0,4.0,100.0,,,,,,,,,,,,,,,-1.0
1708963871.621952,4406.153809,4303.589844,4.0,4.0,100.0,,,,,,,,,,,,,,,-1.0
1708963871.629767,4397.436035,4271.282227,4.0,4.0,100.0,,,,,171.417358,23.758371,6.161786,7.617937,4.171593,65.44751,16.420425,10.482396,4.293825,2.243838,-1.0
1708963871.637581,4376.410156,4235.384766,4.0,4.0,100.0,,,,,,,,,,,,,,,-1.0
1708963871.645396,4369.230957,4234.871582,4.0,4.0,100.0,,,,,,,,,,,,,,,-1.0
1708963871.653211,4347.692383,4243.589844,4.0,4.0,100.0,,,,,,,,,,,,,,,-1.0
1708963871.661026,4297.436035,4212.820313,4.0,4.0,100.0,,,,,,,,,,,,,,,-1.0
1708963871.668841,4315.897461,4185.128418,4.0,4.0,100.0,,,,,,,,,,,,,,,-1.0
1708963871.676655,4388.205078,4226.153809,4.0,4.0,100.0,,,,,,,,,,,,,,,-1.0
1708963871.68447,4408.717773,4287.692383,4.0,4.0,100.0,,,,,,,,,,,,,,,-1.0
1708963871.692285,4404.102539,4300.0,4.0,4.0,100.0,,,,,,,,,,,,,,,-1.0
1708963871.700099,4429.743652,4304.102539,4.0,4.0,100.0,,,,,,,,,,,,,,,-1.0
1708963871.707914,4430.256348,4319.487305,4.0,4.0,100.0,,,,,,,,,,,,,,,-1.0
1708963871.715729,4388.205078,4298.974121,4.0,4.0,100.0,,,,,,,,,,,,,,,-1.0
1708963871.723544,4371.282227,4268.205078,4.0,4.0,100.0,,,,,,,,,,,,,,,-1.0
1708963871.731358,4383.589844,4273.333496,4.0,4.0,100.0,,,,,,,,,,,,,,,-1.0
1708963871.739173,4386.666504,4290.769043,4.0,4.0,100.0,,,,,,,,,,,,,,,-1.0
1708963871.746988,4356.410156,4281.538574,4.0,4.0,100.0,,,,,,,,,,,,,,,-1.0
1708963871.754802,4348.717773,4300.0,4.0,4.0,100.0,,,,,233.033768,30.496845,5.364968,6.774196,3.991003,84.474907,18.541235,10.704918,4.021276,2.183251,-1.0
1708963871.762617,4389.230957,4356.410156,4.0,4.0,100.0,,,,,,,,,,,,,,,-1.0
1708963871.770432,4400.512695,4367.692383,4.0,4.0,100.0,,,,,,,,,,,,,,,-1.0
1708963871.778247,4372.307617,4352.820313,4.0,4.0,100.0,,,,,,,,,,,,,,,-1.0
1708963871.786061,4369.230957,4382.05127,4.0,4.0,100.0,,,,,,,,,,,,,,,-1.0
1708963871.793876,4403.077148,4407.179688,4.0,4.0,100.0,,,,,,,,,,,,,,,-1.0
1708963871.801691,4398.974121,4382.563965,4.0,4.0,100.0,,,,,,,,,,,,,,,-1.0
1708963871.809506,4361.538574,4364.102539,4.0,4.0,100.0,,,,,,,,,,,,,,,-1.0
1708963871.81732,4361.538574,4371.282227,4.0,4.0,100.0,,,,,,,,,,,,,,,-1.0
1708963871.825135,4386.666504,4380.0,4.0,4.0,100.0,,,,,,,,,,,,,,,-1.0
1708963871.83295,4393.846191,4375.897461,4.0,4.0,100.0,,,,,,,,,,,,,,,-1.0
1708963871.840764,4373.333496,4339.487305,4.0,4.0,100.0,,,,,,,,,,,,,,,-1.0
1708963871.848579,4352.307617,4307.692383,4.0,4.0,100.0,,,,,,,,,,,,,,,-1.0
1708963871.856394,4343.077148,4303.589844,4.0,4.0,100.0,,,,,,,,,,,,,,,-1.0
1708963871.864209,4341.025879,4300.512695,4.0,4.0,100.0,,,,,,,,,,,,,,,-1.0
1708963871.872023,4336.922852,4324.615234,4.0,4.0,100.0,,,,,,,,,,,,,,,-1.0
1708963871.879838,4351.794922,4373.846191,4.0,4.0,100.0,,,,,270.829498,36.184963,5.099981,6.307192,3.912653,96.696953,19.87952,10.598516,3.695141,2.15839,-1.0
1708963871.887653,4376.410156,4362.563965,4.0,4.0,100.0,,,,,,,,,,,,,,,-1.0
1708963871.895468,4340.512695,4307.179688,4.0,4.0,100.0,,,,,,,,,,,,,,,-1.0
1708963871.903282,4293.846191,4307.692383,4.0,4.0,100.0,,,,,,,,,,,,,,,-1.0
1708963871.911097,4342.05127,4345.641113,4.0,4.0,100.0,,,,,,,,,,,,,,,-1.0
1708963871.918912,4388.717773,4357.436035,4.0,4.0,100.0,,,,,,,,,,,,,,,-1.0
1708963871.926726,4364.102539,4349.230957,4.0,4.0,100.0,,,,,,,,,,,,,,,-1.0
1708963871.934541,4369.230957,4344.102539,4.0,4.0,100.0,,,,,,,,,,,,,,,-1.0
1708963871.942356,4393.333496,4343.589844,4.0,4.0,100.0,,,,,,,,,,,,,,,-1.0
1708963871.950171,4366.666504,4343.589844,4.0,4.0,100.0,,,,,,,,,,,,,,,-1.0
1708963871.957985,4335.897461,4336.922852,4.0,4.0,100.0,,,,,,,,,,,,,,,-1.0
1708963871.9658,4334.358887,4304.615234,4.0,4.0,100.0,,,,,,,,,,,,,,,-1.0
1708963871.973615,4314.358887,4280.0,4.0,4.0,100.0,,,,,,,,,,,,,,,-1.0
1708963871.981429,4298.461426,4297.436035,4.0,4.0,100.0,,,,,,,,,,,,,,,-1.0
1708963871.989244,4312.820313,4312.307617,4.0,4.0,100.0,,,,,,,,,,,,,,,0.0
1708963871.997059,4316.922852,4290.769043,4.0,4.0,100.0,,,,,,,,,,,,,,,0.0
1708963872.004874,4312.307617,4267.692383,4.0,4.0,100.0,83.333336,4.0,4.0,,272.319366,39.727859,5.362679,6.020129,3.955923,98.111801,20.375175,10.254581,3.350244,2.190057,0.0
1708963872.004874,4312.307617,4267.692383,4.0,4.0,100.0,83.333336,4.0,4.0,,272.319366,39.727859,5.362679,6.020129,3.955923,98.111801,20.375175,10.254581,3.350244,2.190057,0.0
1708963872.012689,4292.307617,4266.153809,4.0,4.0,100.0,,,,,,,,,,,,,,,0.0
1708963872.020503,4284.615234,4269.230957,4.0,4.0,100.0,,,,,,,,,,,,,,,0.0
1708963872.028318,4321.025879,4269.743652,4.0,4.0,100.0,,,,,,,,,,,,,,,0.0
1708963872.036133,4353.846191,4286.153809,4.0,4.0,100.0,,,,,,,,,,,,,,,0.0
1708963872.043947,4349.743652,4312.307617,4.0,4.0,100.0,,,,,,,,,,,,,,,0.0
1708963872.051762,4336.922852,4321.538574,4.0,4.0,100.0,,,,,,,,,,,,,,,0.0
1708963872.059577,4334.871582,4304.615234,4.0,4.0,100.0,,,,,,,,,,,,,,,0.0
1708963872.067392,4342.563965,4301.538574,4.0,4.0,100.0,,,,,,,,,,,,,,,0.0
1708963872.075206,4355.384766,4314.871582,4.0,4.0,100.0,,,,,,,,,,,,,,,0.0
1708963872.083021,4340.512695,4304.615234,4.0,4.0,100.0,,,,,,,,,,,,,,,0.0
1708963872.090836,4314.358887,4285.128418,4.0,4.0,100.0,,,,,,,,,,,,,,,0.0
1708963872.098651,4327.692383,4287.692383,4.0,4.0,100.0,,,,,,,,,,,,,,,0.0
1708963872.106465,4361.538574,4303.077148,4.0,4.0,100.0,,,,,,,,,,,,,,,0.0
1708963872.11428,4367.692383,4312.307617,4.0,4.0,100.0,,,,,,,,,,,,,,,0.0
1708963872.122095,4351.794922,4320.0,4.0,4.0,100.0,,,,,,,,,,,,,,,0.0
1708963872.129909,4362.563965,4328.205078,4.0,4.0,100.0,,,,,239.059174,40.655453,6.043094,5.689594,4.058808,89.532692,20.307724,9.916452,3.07072,2.274509,0.0
1708963872.137724,4390.256348,4329.230957,4.0,4.0,100.0,,,,,,,,,,,,,,,0.0
1708963872.145539,4385.641113,4337.94873,4.0,4.0,100.0,,,,,,,,,,,,,,,0.0
1708963872.153354,4378.461426,4338.974121,4.0,4.0,100.0,,,,,,,,,,,,,,,0.0
1708963872.161168,4384.615234,4314.871582,4.0,4.0,100.0,,,,,,,,,,,,,,,0.0
1708963872.168983,4365.641113,4298.974121,4.0,4.0,100.0,,,,,,,,,,,,,,,0.0
1708963872.176798,4325.641113,4294.871582,4.0,4.0,100.0,,,,,,,,,,,,,,,0.0
1708963872.184612,4321.025879,4289.230957,4.0,4.0,100.0,,,,,,,,,,,,,,,0.0
1708963872.192427,4343.077148,4288.717773,4.0,4.0,100.0,,,,,,,,,,,,,,,0.0
1708963872.200242,4352.820313,4292.820313,4.0,4.0,100.0,,,,,,,,,,,,,,,0.0
1708963872.208057,4337.436035,4298.461426,4.0,4.0,100.0,,,,,,,,,,,,,,,0.0
1708963872.215871,4326.153809,4305.641113,4.0,4.0,100.0,,,,,,,,,,,,,,,0.0
1708963872.223686,4342.05127,4304.615234,4.0,4.0,100.0,,,,,,,,,,,,,,,0.0
1708963872.231501,4351.282227,4300.0,4.0,4.0,100.0,,,,,,,,,,,,,,,0.0
1708963872.239316,4339.487305,4295.897461,4.0,4.0,100.0,,,,,,,,,,,,,,,0.0
1708963872.24713,4314.871582,4269.230957,4.0,4.0,100.0,,,,,,,,,,,,,,,0.0
1708963872.254945,4308.717773,4253.333496,4.0,4.0,100.0,,,,,183.747696,39.102859,6.922789,5.211267,4.132476,74.242821,20.103619,9.77213,2.976605,2.388928,0.0
1708963872.26276,4337.436035,4284.102539,4.0,4.0,100.0,,,,,,,,,,,,,,,0.0
1708963872.270574,4349.230957,4308.717773,4.0,4.0,100.0,,,,,,,,,,,,,,,0.0
1708963872.278389,4319.487305,4294.871582,4.0,4.0,100.0,,,,,,,,,,,,,,,0.0
1708963872.286204,4297.94873,4275.384766,4.0,4.0,100.0,,,,,,,,,,,,,,,0.0
1708963872.294019,4321.538574,4284.615234,4.0,4.0,100.0,,,,,,,,,,,,,,,0.0
1708963872.301834,4365.128418,4316.410156,4.0,4.0,100.0,,,,,,,,,,,,,,,0.0
1708963872.309648,4377.436035,4338.461426,4.0,4.0,100.0,,,,,,,,,,,,,,,0.0
1708963872.317463,4354.358887,4333.846191,4.0,4.0,100.0,,,,,,,,,,,,,,,0.0
1708963872.325278,4339.487305,4320.0,4.0,4.0,100.0,,,,,,,,,,,,,,,0.0
1708963872.333092,4363.077148,4317.436035,4.0,4.0,100.0,,,,,,,,,,,,,,,0.0
1708963872.340907,4377.436035,4315.897461,4.0,4.0,100.0,,,,,,,,,,,,,,,0.0
1708963872.348722,4357.94873,4321.538574,4.0,4.0,100.0,,,,,,,,,,,,,,,0.0
1708963872.356537,4348.717773,4330.256348,4.0,4.0,100.0,,,,,,,,,,,,,,,0.0
1708963872.364351,4351.794922,4315.384766,4.0,4.0,100.0,,,,,,,,,,,,,,,0.0
1708963872.372166,4350.256348,4304.102539,4.0,4.0,100.0,,,,,,,,,,,,,,,0.0
1708963872.379981,4358.461426,4326.153809,4.0,4.0,100.0,,,,,125.816566,35.941467,7.758183,4.630503,4.114772,58.353596,20.068518,9.878057,3.128018,2.496433,0.0
1708963872.387795,4363.589844,4349.230957,4.0,4.0,100.0,,,,,,,,,,,,,,,0.0
1708963872.39561,4358.461426,4342.05127,4.0,4.0,100.0,,,,,,,,,,,,,,,0.0
1708963872.403425,4352.307617,4317.94873,4.0,4.0,100.0,,,,,,,,,,,,,,,0.0
1708963872.41124,4321.538574,4292.820313,4.0,4.0,100.0,,,,,,,,,,,,,,,0.0
1708963872.419054,4284.102539,4288.717773,4.0,4.0,100.0,,,,,,,,,,,,,,,0.0
1708963872.426869,4296.410156,4286.153809,4.0,4.0,100.0,,,,,,,,,,,,,,,0.0
1708963872.434684,4318.461426,4272.307617,4.0,4.0,100.0,,,,,,,,,,,,,,,0.0
1708963872.442499,4303.077148,4278.974121,4.0,4.0,100.0,,,,,,,,,,,,,,,0.0
1708963872.450313,4275.897461,4269.230957,4.0,4.0,100.0,,,,,,,,,,,,,,,0.0
1708963872.458128,4262.563965,4232.820313,4.0,4.0,100.0,,,,,,,,,,,,,,,0.0
1708963872.465943,4266.666504,4231.794922,4.0,4.0,100.0,,,,,,,,,,,,,,,0.0
1708963872.473757,4282.563965,4262.05127,4.0,4.0,100.0,,,,,,,,,,,,,,,0.0
1708963872.481572,4291.282227,4270.256348,4.0,4.0,100.0,,,,,,,,,,,,,,,0.0
1708963872.489387,4297.94873,4267.179688,4.0,4.0,100.0,,,,,,,,,,,,,,,0.0
1708963872.497202,4306.666504,4268.717773,4.0,4.0,100.0,,,,,,,,,,,,,,,0.0
1708963872.505016,4302.05127,4280.0,4.0,4.0,100.0,83.333336,4.0,4.0,,78.911728,32.216785,8.242879,4.06533,3.996158,45.320599,20.231157,10.048901,3.459799,2.558302,0.0
1708963872.505016,4302.05127,4280.0,4.0,4.0,100.0,83.333336,4.0,4.0,,78.911728,32.216785,8.242879,4.06533,3.996158,45.320599,20.231157,10.048901,3.459799,2.558302,0.0
1708963872.512831,4304.102539,4302.563965,4.0,4.0,100.0,,,,,,,,,,,,,,,0.0
1708963872.520646,4321.538574,4303.077148,4.0,4.0,100.0,,,,,,,,,,,,,,,0.0
1708963872.528461,4303.589844,4294.871582,4.0,4.0,100.0,,,,,,,,,,,,,,,0.0
1708963872.536275,4275.897461,4295.384766,4.0,4.0,100.0,,,,,,,,,,,,,,,0.0
1708963872.54409,4309.743652,4282.05127,4.0,4.0,100.0,,,,,,,,,,,,,,,0.0
1708963872.551905,4371.282227,4275.384766,4.0,4.0,100.0,,,,,,,,,,,,,,,0.0
1708963872.559719,4358.461426,4296.922852,4.0,4.0,100.0,,,,,,,,,,,,,,,0.0
1708963872.567534,4303.077148,4307.179688,4.0,4.0,100.0,,,,,,,,,,,,,,,0.0
1708963872.575349,4316.922852,4301.025879,4.0,4.0,100.0,,,,,,,,,,,,,,,0.0
1708963872.583164,4375.384766,4320.512695,4.0,4.0,100.0,,,,,,,,,,,,,,,0.0
1708963872.590978,4382.563965,4357.94873,4.0,4.0,100.0,,,,,,,,,,,,,,,0.0
1708963872.598793,4364.615234,4377.94873,4.0,4.0,100.0,,,,,,,,,,,,,,,0.0
1708963872.606608,4381.538574,4370.256348,4.0,4.0,100.0,,,,,,,,,,,,,,,0.0
1708963872.614423,4388.205078,4361.025879,4.0,4.0,100.0,,,,,,,,,,,,,,,0.0
1708963872.622237,4375.384766,4361.538574,4.0,4.0,100.0,,,,,,,,,,,,,,,0.0
1708963872.630052,4390.769043,4354.871582,4.0,4.0,100.0,,,,,49.695877,28.492994,8.110789,3.627541,3.825052,37.092525,20.27565,9.918713,3.827767,2.54946,0.0
1708963872.637867,4387.692383,4350.769043,4.0,4.0,100.0,,,,,,,,,,,,,,,0.0
1708963872.645682,4348.717773,4354.358887,4.0,4.0,100.0,,,,,,,,,,,,,,,0.0
1708963872.653496,4351.282227,4360.512695,4.0,4.0,100.0,,,,,,,,,,,,,,,0.0
1708963872.661311,4389.230957,4356.922852,4.0,4.0,100.0,,,,,,,,,,,,,,,0.0
1708963872.669126,4386.153809,4353.846191,4.0,4.0,100.0,,,,,,,,,,,,,,,0.0
1708963872.67694,4356.922852,4351.794922,4.0,4.0,100.0,,,,,,,,,,,,,,,0.0
1708963872.684755,4355.384766,4341.025879,4.0,4.0,100.0,,,,,,,,,,,,,,,0.0
1708963872.69257,4380.0,4341.025879,4.0,4.0,100.0,,,,,,,,,,,,,,,0.0
1708963872.700385,4392.307617,4344.102539,4.0,4.0,100.0,,,,,,,,,,,,,,,0.0
1708963872.708199,4383.589844,4342.563965,4.0,4.0,100.0,,,,,,,,,,,,,,,0.0
1708963872.716014,4378.461426,4353.333496,4.0,4.0,100.0,,,,,,,,,,,,,,,0.0
1708963872.723829,4378.461426,4356.410156,4.0,4.0,100.0,,,,,,,,,,,,,,,0.0
1708963872.731644,4368.717773,4330.256348,4.0,4.0,100.0,,,,,,,,,,,,,,,0.0
1708963872.739458,4363.077148,4314.871582,4.0,4.0,100.0,,,,,,,,,,,,,,,0.0
1708963872.747273,4348.205078,4302.563965,4.0,4.0,100.0,,,,,,,,,,,,,,,0.0
1708963872.755088,4312.307617,4289.743652,4.0,4.0,100.0,,,,,35.883442,24.858343,7.268485,3.36311,3.657809,32.591316,19.678276,9.156574,4.082692,2.456753,0.0
1708963872.762902,4312.820313,4318.974121,4.0,4.0,100.0,,,,,,,,,,,,,,,0.0
1708963872.770717,4322.05127,4318.974121,4.0,4.0,100.0,,,,,,,,,,,,,,,0.0
1708963872.778532,4298.974121,4260.0,4.0,4.0,100.0,,,,,,,,,,,,,,,0.0
1708963872.786347,4316.410156,4259.487305,4.0,4.0,100.0,,,,,,,,,,,,,,,0.0
1708963872.794161,4371.794922,4290.256348,4.0,4.0,100.0,,,,,,,,,,,,,,,0.0
1708963872.801976,4360.512695,4248.205078,4.0,4.0,100.0,,,,,,,,,,,,,,,0.0
1708963872.809791,4304.102539,4211.794922,4.0,4.0,100.0,,,,,,,,,,,,,,,0.0
1708963872.817606,4312.820313,4234.358887,4.0,4.0,100.0,,,,,,,,,,,,,,,0.0
1708963872.82542,4346.153809,4242.05127,4.0,4.0,100.0,,,,,,,,,,,,,,,0.0
1708963872.833235,4324.615234,4226.153809,4.0,4.0,100.0,,,,,,,,,,,,,,,0.0
1708963872.84105,4294.358887,4200.512695,4.0,4.0,100.0,,,,,,,,,,,,,,,0.0
1708963872.848864,4297.436035,4167.179688,4.0,4.0,100.0,,,,,,,,,,,,,,,0.0
1708963872.856679,4299.487305,4162.05127,4.0,4.0,100.0,,,,,,,,,,,,,,,0.0
1708963872.864494,4295.897461,4193.333496,4.0,4.0,100.0,,,,,,,,,,,,,,,0.0
1708963872.872309,4316.922852,4213.333496,4.0,4.0,100.0,,,,,,,,,,,,,,,0.0
1708963872.880123,4318.461426,4201.538574,4.0,4.0,100.0,,,,,30.672865,21.07221,5.867437,3.234328,3.547754,29.768143,18.116825,7.739167,4.127032,2.281323,0.0
1708963872.887938,4316.922852,4203.077148,4.0,4.0,100.0,,,,,,,,,,,,,,,0.0
1708963872.895753,4360.512695,4232.820313,4.0,4.0,100.0,,,,,,,,,,,,,,,0.0
1708963872.903567,4372.307617,4236.410156,4.0,4.0,100.0,,,,,,,,,,,,,,,0.0
1708963872.911382,4354.358887,4216.410156,4.0,4.0,100.0,,,,,,,,,,,,,,,0.0
1708963872.919197,4366.666504,4226.153809,4.0,4.0,100.0,,,,,,,,,,,,,,,0.0
1708963872.927012,4359.487305,4232.307617,4.0,4.0,100.0,,,,,,,,,,,,,,,0.0
1708963872.934826,4333.333496,4192.820313,4.0,4.0,100.0,,,,,,,,,,,,,,,0.0
1708963872.942641,4336.410156,4144.102539,4.0,4.0,100.0,,,,,,,,,,,,,,,0.0
1708963872.950456,4309.743652,4102.563965,4.0,4.0,100.0,,,,,,,,,,,,,,,0.0
1708963872.958271,4272.820313,4103.589844,4.0,4.0,100.0,,,,,,,,,,,,,,,1.0
1708963872.966085,4316.922852,4157.94873,4.0,4.0,100.0,,,,,,,,,,,,,,,1.0
1708963872.9739,4375.897461,4190.256348,4.0,4.0,100.0,,,,,,,,,,,,,,,1.0
1708963872.981715,4380.512695,4192.820313,4.0,4.0,100.0,,,,,,,,,,,,,,,1.0
1708963872.989529,4378.461426,4196.410156,4.0,4.0,100.0,,,,,,,,,,,,,,,1.0
1708963872.997344,4372.307617,4192.820313,4.0,4.0,100.0,,,,,,,,,,,,,,,1.0
1708963873.005159,4350.769043,4197.94873,4.0,4.0,100.0,83.333336,4.0,4.0,,27.53014,17.190639,4.260472,3.194137,3.525736,26.312107,15.795194,6.049525,3.97049,2.048811,1.0
1708963873.005159,4350.769043,4197.94873,4.0,4.0,100.0,83.333336,4.0,4.0,,27.53014,17.190639,4.260472,3.194137,3.525736,26.312107,15.795194,6.049525,3.97049,2.048811,1.0
1708963873.012974,4362.563965,4205.128418,4.0,4.0,100.0,,,,,,,,,,,,,,,1.0
1708963873.020789,4377.436035,4182.05127,4.0,4.0,100.0,,,,,,,,,,,,,,,1.0
1708963873.028603,4348.717773,4169.230957,4.0,4.0,100.0,,,,,,,,,,,,,,,1.0
1708963873.036418,4334.871582,4180.512695,4.0,4.0,100.0,,,,,,,,,,,,,,,1.0
1708963873.044233,4358.974121,4174.871582,4.0,4.0,100.0,,,,,,,,,,,,,,,1.0
1708963873.052047,4367.179688,4171.794922,4.0,4.0,100.0,,,,,,,,,,,,,,,1.0
1708963873.059862,4342.05127,4188.717773,4.0,4.0,100.0,,,,,,,,,,,,,,,1.0
1708963873.067677,4311.794922,4187.692383,4.0,4.0,100.0,,,,,,,,,,,,,,,1.0
1708963873.075492,4296.922852,4147.692383,4.0,4.0,100.0,,,,,,,,,,,,,,,1.0
1708963873.083306,4318.461426,4114.358887,4.0,4.0,100.0,,,,,,,,,,,,,,,1.0
1708963873.091121,4334.358887,4128.205078,4.0,4.0,100.0,,,,,,,,,,,,,,,1.0
1708963873.098936,4303.077148,4152.820313,4.0,4.0,100.0,,,,,,,,,,,,,,,1.0
1708963873.10675,4278.461426,4141.538574,4.0,4.0,100.0,,,,,,,,,,,,,,,1.0
1708963873.114565,4284.102539,4109.230957,4.0,4.0,100.0,,,,,,,,,,,,,,,1.0
1708963873.12238,4298.974121,4108.205078,4.0,4.0,100.0,,,,,,,,,,,,,,,1.0
1708963873.130195,4289.230957,4132.820313,4.0,4.0,100.0,,,,,23.823103,13.543654,2.759782,3.182755,3.578568,22.323202,13.181198,4.466872,3.671592,1.803515,1.0
1708963873.138009,4273.333496,4149.230957,4.0,4.0,100.0,,,,,,,,,,,,,,,1.0
1708963873.145824,4290.769043,4157.94873,4.0,4.0,100.0,,,,,,,,,,,,,,,1.0
1708963873.153639,4284.102539,4158.461426,4.0,4.0,100.0,,,,,,,,,,,,,,,1.0
1708963873.161454,4261.025879,4172.820313,4.0,4.0,100.0,,,,,,,,,,,,,,,1.0
1708963873.169268,4295.897461,4198.974121,4.0,4.0,100.0,,,,,,,,,,,,,,,1.0
1708963873.177083,4313.333496,4204.615234,4.0,4.0,100.0,,,,,,,,,,,,,,,1.0
1708963873.184898,4253.846191,4188.205078,4.0,4.0,100.0,,,,,,,,,,,,,,,1.0
1708963873.192712,4244.102539,4160.0,4.0,4.0,100.0,,,,,,,,,,,,,,,1.0
1708963873.200527,4287.692383,4125.641113,4.0,4.0,100.0,,,,,,,,,,,,,,,1.0
1708963873.208342,4255.897461,4133.333496,4.0,4.0,100.0,,,,,,,,,,,,,,,1.0
1708963873.216157,4214.358887,4178.461426,4.0,4.0,100.0,,,,,,,,,,,,,,,1.0
1708963873.223971,4240.0,4178.461426,4.0,4.0,100.0,,,,,,,,,,,,,,,1.0
1708963873.231786,4256.410156,4156.410156,4.0,4.0,100.0,,,,,,,,,,,,,,,1.0
1708963873.239601,4248.205078,4152.307617,4.0,4.0,100.0,,,,,,,,,,,,,,,1.0
1708963873.247416,4242.05127,4133.333496,4.0,4.0,100.0,,,,,,,,,,,,,,,1.0
1708963873.25523,4214.871582,4121.025879,4.0,4.0,100.0,,,,,20.452208,10.921542,1.763121,3.148241,3.673985,19.083395,11.1168,3.466244,3.346696,1.605235,1.0
1708963873.263045,4201.538574,4140.512695,4.0,4.0,100.0,,,,,,,,,,,,,,,1.0
1708963873.27086,4241.538574,4153.333496,4.0,4.0,100.0,,,,,,,,,,,,,,,1.0
1708963873.278674,4244.102539,4145.128418,4.0,4.0,100.0,,,,,,,,,,,,,,,1.0
1708963873.286489,4175.897461,4135.897461,4.0,4.0,100.0,,,,,,,,,,,,,,,1.0
1708963873.294304,4174.358887,4131.794922,4.0,4.0,100.0,,,,,,,,,,,,,,,1.0
1708963873.302119,4261.538574,4132.307617,4.0,4.0,100.0,,,,,,,,,,,,,,,1.0
1708963873.309933,4268.205078,4140.512695,4.0,4.0,100.0,,,,,,,,,,,,,,,1.0
1708963873.317748,4205.128418,4166.153809,4.0,4.0,100.0,,,,,,,,,,,,,,,1.0
1708963873.325563,4243.077148,4195.384766,4.0,4.0,100.0,,,,,,,,,,,,,,,1.0
1708963873.333377,4299.487305,4198.461426,4.0,4.0,100.0,,,,,,,,,,,,,,,1.0
1708963873.341192,4225.128418,4162.563965,4.0,4.0,100.0,,,,,,,,,,,,,,,1.0
1708963873.349007,4145.641113,4107.692383,4.0,4.0,100.0,,,,,,,,,,,,,,,1.0
1708963873.356822,4175.384766,4095.384521,4.0,4.0,100.0,,,,,,,,,,,,,,,1.0
1708963873.364637,4204.102539,4121.538574,4.0,4.0,100.0,,,,,,,,,,,,,,,1.0
1708963873.372451,4169.230957,4117.436035,4.0,4.0,100.0,,,,,,,,,,,,,,,1.0
1708963873.380266,4153.846191,4109.743652,4.0,4.0,100.0,,,,,17.254707,9.939966,1.497079,3.076118,3.795963,16.760477,10.364347,3.325741,3.138297,1.5101,1.0
1708963873.388081,4176.922852,4140.512695,4.0,4.0,100.0,,,,,,,,,,,,,,,1.0
1708963873.395895,4166.666504,4141.025879,4.0,4.0,100.0,,,,,,,,,,,,,,,1.0
1708963873.40371,4125.128418,4100.512695,4.0,4.0,100.0,,,,,,,,,,,,,,,1.0
1708963873.411525,4135.897461,4113.846191,4.0,4.0,100.0,,,,,,,,,,,,,,,1.0
1708963873.41934,4190.256348,4156.922852,4.0,4.0,100.0,,,,,,,,,,,,,,,1.0
1708963873.427154,4207.179688,4158.461426,4.0,4.0,100.0,,,,,,,,,,,,,,,1.0
1708963873.434969,4198.974121,4160.0,4.0,4.0,100.0,,,,,,,,,,,,,,,1.0
1708963873.442784,4219.487305,4191.282227,4.0,4.0,100.0,,,,,,,,,,,,,,,1.0
1708963873.450599,4239.487305,4199.487305,4.0,4.0,100.0,,,,,,,,,,,,,,,1.0
1708963873.458413,4216.922852,4175.897461,4.0,4.0,100.0,,,,,,,,,,,,,,,1.0
1708963873.466228,4206.153809,4167.179688,4.0,4.0,100.0,,,,,,,,,,,,,,,1.0
1708963873.474043,4229.743652,4182.563965,4.0,4.0,100.0,,,,,,,,,,,,,,,1.0
1708963873.481857,4238.461426,4202.563965,4.0,4.0,100.0,,,,,,,,,,,,,,,1.0
1708963873.489672,4241.025879,4202.05127,4.0,4.0,100.0,,,,,,,,,,,,,,,1.0
1708963873.497487,4240.512695,4187.179688,4.0,4.0,100.0,,,,,,,,,,,,,,,1.0
1708963873.505302,4230.256348,4200.512695,4.0,4.0,100.0,75.0,4.0,4.0,,13.80546,10.495112,1.880684,2.94296,3.95295,15.818236,10.913648,4.026815,3.175501,1.540804,1.0
1708963873.505302,4230.256348,4200.512695,4.0,4.0,100.0,75.0,4.0,4.0,,13.80546,10.495112,1.880684,2.94296,3.95295,15.818236,10.913648,4.026815,3.175501,1.540804,1.0
1708963873.513116,4269.743652,4246.153809,4.0,4.0,100.0,,,,,,,,,,,,,,,1.0
1708963873.520931,4321.538574,4268.717773,4.0,4.0,100.0,,,,,,,,,,,,,,,1.0
1708963873.528746,4316.922852,4255.384766,4.0,4.0,100.0,,,,,,,,,,,,,,,1.0
1708963873.53656,4322.05127,4250.256348,4.0,4.0,100.0,,,,,,,,,,,,,,,1.0
1708963873.544375,4343.589844,4257.94873,4.0,4.0,100.0,,,,,,,,,,,,,,,1.0
1708963873.55219,4342.05127,4267.179688,4.0,4.0,100.0,,,,,,,,,,,,,,,1.0
1708963873.560005,4384.102539,4284.615234,4.0,4.0,100.0,,,,,,,,,,,,,,,1.0
1708963873.567819,4454.358887,4292.307617,4.0,4.0,100.0,,,,,,,,,,,,,,,1.0
1708963873.575634,4464.102539,4272.820313,4.0,4.0,100.0,,,,,,,,,,,,,,,1.0
1708963873.583449,4457.94873,4287.692383,4.0,4.0,100.0,,,,,,,,,,,,,,,1.0
1708963873.591264,4468.717773,4343.077148,4.0,4.0,100.0,,,,,,,,,,,,,,,1.0
1708963873.599078,4476.922852,4370.256348,4.0,4.0,100.0,,,,,,,,,,,,,,,1.0
1708963873.606893,4494.871582,4358.461426,4.0,4.0,100.0,,,,,,,,,,,,,,,1.0
1708963873.614708,4515.384766,4340.0,4.0,4.0,100.0,,,,,,,,,,,,,,,1.0
1708963873.622522,4518.461426,4343.077148,4.0,4.0,100.0,,,,,,,,,,,,,,,1.0
1708963873.630337,4512.820313,4360.512695,4.0,4.0,100.0,,,,,10.205842,11.771457,2.599458,2.738716,4.192972,15.700953,12.053967,5.175023,3.525442,1.672072,1.0
1708963873.638152,4527.179688,4365.128418,4.0,4.0,100.0,,,,,,,,,,,,,,,1.0
1708963873.645967,4565.128418,4386.153809,4.0,4.0,100.0,,,,,,,,,,,,,,,1.0
1708963873.653782,4594.358887,4426.153809,4.0,4.0,100.0,,,,,,,,,,,,,,,1.0
1708963873.661596,4609.743652,4418.974121,4.0,4.0,100.0,,,,,,,,,,,,,,,1.0
1708963873.669411,4665.128418,4425.641113,4.0,4.0,100.0,,,,,,,,,,,,,,,1.0
1708963873.677226,4746.666504,4521.025879,4.0,4.0,100.0,,,,,,,,,,,,,,,1.0
1708963873.68504,4794.358887,4583.077148,4.0,4.0,100.0,,,,,,,,,,,,,,,1.0
1708963873.692855,4828.205078,4543.589844,4.0,4.0,100.0,,,,,,,,,,,,,,,1.0
1708963873.70067,4855.384766,4537.436035,4.0,4.0,100.0,,,,,,,,,,,,,,,1.0
1708963873.708485,4865.641113,4596.922852,4.0,4.0,100.0,,,,,,,,,,,,,,,1.0
1708963873.716299,4874.358887,4609.230957,4.0,4.0,100.0,,,,,,,,,,,,,,,1.0
1708963873.724114,4874.871582,4607.692383,4.0,4.0,100.0,,,,,,,,,,,,,,,1.0
1708963873.731929,4902.563965,4669.230957,4.0,4.0,100.0,,,,,,,,,,,,,,,1.0
1708963873.739743,4972.307617,4728.205078,4.0,4.0,100.0,,,,,,,,,,,,,,,1.0
1708963873.747558,4998.974121,4740.512695,4.0,4.0,100.0,,,,,,,,,,,,,,,1.0
1708963873.755373,4975.897461,4750.769043,4.0,4.0,100.0,,,,,7.678813,12.87375,3.385986,2.492109,4.566156,16.484875,13.00944,6.300661,4.16185,1.846776,1.0
1708963873.763188,4948.205078,4742.05127,4.0,4.0,100.0,,,,,,,,,,,,,,,1.0
1708963873.771002,4886.666504,4694.871582,4.0,4.0,100.0,,,,,,,,,,,,,,,1.0
1708963873.778817,4818.461426,4666.666504,4.0,4.0,100.0,,,,,,,,,,,,,,,1.0
1708963873.786632,4801.025879,4683.077148,4.0,4.0,100.0,,,,,,,,,,,,,,,1.0
1708963873.794447,4746.666504,4674.871582,4.0,4.0,100.0,,,,,,,,,,,,,,,1.0
1708963873.802261,4626.666504,4610.256348,4.0,4.0,100.0,,,,,,,,,,,,,,,1.0
1708963873.810076,4572.307617,4564.102539,4.0,4.0,100.0,,,,,,,,,,,,,,,1.0
1708963873.817891,4574.358887,4564.102539,4.0,4.0,100.0,,,,,,,,,,,,,,,1.0
1708963873.825705,4528.205078,4537.436035,4.0,4.0,100.0,,,,,,,,,,,,,,,1.0
1708963873.83352,4487.179688,4497.436035,4.0,4.0,100.0,,,,,,,,,,,,,,,1.0
1708963873.841335,4493.846191,4506.666504,4.0,4.0,100.0,,,,,,,,,,,,,,,1.0
1708963873.84915,4487.692383,4526.666504,4.0,4.0,100.0,,,,,,,,,,,,,,,1.0
1708963873.856964,4471.794922,4502.05127,4.0,4.0,100.0,,,,,,,,,,,,,,,1.0
1708963873.864779,4471.282227,4454.358887,4.0,4.0,100.0,,,,,,,,,,,,,,,1.0
1708963873.872594,4414.871582,4442.05127,4.0,4.0,100.0,,,,,,,,,,,,,,,1.0
1708963873.880409,4381.025879,4492.307617,4.0,4.0,100.0,,,,,7.606888,13.303205,4.097631,2.325679,5.07008,18.149433,13.379111,7.137232,4.944237,2.012108,1.0
1708963873.888223,4463.077148,4528.717773,4.0,4.0,100.0,,,,,,,,,,,,,,,1.0
1708963873.896038,4521.025879,4505.128418,4.0,4.0,100.0,,,,,,,,,,,,,,,1.0
1708963873.903853,4467.179688,4486.153809,4.0,4.0,100.0,,,,,,,,,,,,,,,1.0
1708963873.911667,4427.179688,4502.05127,4.0,4.0,100.0,,,,,,,,,,,,,,,1.0
1708963873.919482,4430.769043,4508.205078,4.0,4.0,100.0,,,,,,,,,,,,,,,1.0
1708963873.927297,4422.05127,4496.410156,4.0,4.0,100.0,,,,,,,,,,,,,,,1.0
1708963873.935112,4433.333496,4500.512695,4.0,4.0,100.0,,,,,,,,,,,,,,,1.0
1708963873.942926,4447.692383,4501.538574,4.0,4.0,100.0,,,,,,,,,,,,,,,1.0
1708963873.950741,4434.871582,4478.974121,4.0,4.0,100.0,,,,,,,,,,,,,,,1.0
1708963873.958556,4422.05127,4449.230957,4.0,4.0,100.0,,,,,,,,,,,,,,,1.0
1708963873.96637,4415.897461,4426.153809,4.0,4.0,100.0,,,,,,,,,,,,,,,1.0
1708963873.974185,4410.256348,4420.0,4.0,4.0,100.0,,,,,,,,,,,,,,,1.0
1708963873.982,4423.589844,4442.05127,4.0,4.0,100.0,,,,,,,,,,,,,,,1.0
1708963873.989815,4453.333496,4467.692383,4.0,4.0,100.0,,,,,,,,,,,,,,,1.0
1708963873.99763,4457.436035,4473.846191,4.0,4.0,100.0,,,,,,,,,,,,,,,1.0
1708963874.005444,4449.230957,4468.717773,4.0,4.0,100.0,75.0,4.0,4.0,1.0,13.658786,13.027405,4.697769,2.384761,5.609702,21.442232,13.16269,7.533262,5.693854,2.164596,1.0
1708963876.006015,4250.769043,4132.307617,4.0,4.0,100.0,83.333336,4.0,4.0,,320.736908,55.763027,7.708203,4.480867,6.247121,141.604233,18.764469,3.131413,2.690846,1.710931,1.0
1708963876.013829,4249.743652,4109.230957,4.0,4.0,100.0,,,,,,,,,,,,,,,1.0
1708963876.021644,4234.358887,4096.922852,4.0,4.0,100.0,,,,,,,,,,,,,,,1.0
1708963876.029459,4224.102539,4079.487061,4.0,4.0,100.0,,,,,,,,,,,,,,,1.0
1708963876.037274,4177.436035,4040.0,4.0,4.0,100.0,,,,,,,,,,,,,,,1.0
1708963876.045088,4120.512695,4022.05127,4.0,4.0,100.0,,,,,,,,,,,,,,,1.0
1708963876.052903,4123.589844,4021.538574,4.0,4.0,100.0,,,,,,,,,,,,,,,1.0
1708963876.060718,4125.641113,4002.564209,4.0,4.0,100.0,,,,,,,,,,,,,,,1.0
1708963876.068533,4086.666748,3987.179443,4.0,4.0,100.0,,,,,,,,,,,,,,,1.0
1708963876.076347,4077.94873,3984.102539,4.0,4.0,100.0,,,,,,,,,,,,,,,1.0
1708963876.084162,4120.512695,4002.05127,4.0,4.0,100.0,,,,,,,,,,,,,,,1.0
1708963876.091977,4151.282227,4036.410156,4.0,4.0,100.0,,,,,,,,,,,,,,,1.0
1708963876.099791,4134.358887,4048.205078,4.0,4.0,100.0,,,,,,,,,,,,,,,1.0
1708963876.107606,4127.179688,4056.923096,4.0,4.0,100.0,,,,,,,,,,,,,,,1.0
1708963876.115421,4184.102539,4103.077148,4.0,4.0,100.0,,,,,,,,,,,,,,,1.0
1708963876.123236,4251.794922,4138.974121,4.0,4.0,100.0,,,,,,,,,,,,,,,1.0
1708963876.13105,4263.589844,4146.666504,4.0,4.0,100.0,,,,,235.448669,38.854279,5.873919,4.360303,5.639792,111.475082,13.804594,2.003652,2.574645,1.566271,1.0
1708963876.138865,4252.820313,4163.077148,4.0,4.0,100.0,,,,,,,,,,,,,,,1.0
1708963876.14668,4263.077148,4177.94873,4.0,4.0,100.0,,,,,,,,,,,,,,,1.0
1708963876.154494,4278.461426,4198.461426,4.0,4.0,100.0,,,,,,,,,,,,,,,1.0
1708963876.162309,4301.025879,4225.641113,4.0,4.0,100.0,,,,,,,,,,,,,,,1.0
1708963876.170124,4316.410156,4213.333496,4.0,4.0,100.0,,,,,,,,,,,,,,,1.0
1708963876.177939,4298.461426,4200.0,4.0,4.0,100.0,,,,,,,,,,,,,,,1.0
1708963876.185753,4295.897461,4227.692383,4.0,4.0,100.0,,,,,,,,,,,,,,,1.0
1708963876.193568,4336.410156,4251.282227,4.0,4.0,100.0,,,,,,,,,,,,,,,1.0
1708963876.201383,4371.282227,4264.102539,4.0,4.0,100.0,,,,,,,,,,,,,,,1.0
1708963876.209198,4368.717773,4278.461426,4.0,4.0,100.0,,,,,,,,,,,,,,,1.0
1708963876.217012,4361.025879,4265.641113,4.0,4.0,100.0,,,,,,,,,,,,,,,1.0
1708963876.224827,4384.102539,4264.615234,4.0,4.0,100.0,,,,,,,,,,,,,,,1.0
1708963876.232642,4406.666504,4294.358887,4.0,4.0,100.0,,,,,,,,,,,,,,,1.0
1708963876.240456,4404.615234,4310.769043,4.0,4.0,100.0,,,,,,,,,,,,,,,1.0
1708963876.248271,4418.461426,4308.205078,4.0,4.0,100.0,,,,,,,,,,,,,,,1.0
1708963876.256086,4453.846191,4305.641113,4.0,4.0,100.0,,,,,151.510712,23.107111,4.613567,4.138141,5.029405,80.821037,9.166068,1.448605,2.416903,1.538619,1.0
1708963876.263901,4432.820313,4294.358887,4.0,4.0,100.0,,,,,,,,,,,,,,,1.0
1708963876.271716,4377.94873,4278.974121,4.0,4.0,100.0,,,,,,,,,,,,,,,1.0
1708963876.27953,4380.0,4259.487305,4.0,4.0,100.0,,,,,,,,,,,,,,,1.0
1708963876.287345,4375.897461,4226.666504,4.0,4.0,100.0,,,,,,,,,,,,,,,1.0
1708963876.29516,4336.922852,4226.153809,4.0,4.0,100.0,,,,,,,,,,,,,,,1.0
1708963876.302974,4331.282227,4236.410156,4.0,4.0,100.0,,,,,,,,,,,,,,,1.0
1708963876.310789,4356.922852,4212.307617,4.0,4.0,100.0,,,,,,,,,,,,,,,1.0
1708963876.318604,4376.410156,4195.897461,4.0,4.0,100.0,,,,,,,,,,,,,,,1.0
1708963876.326419,4378.974121,4218.974121,4.0,4.0,100.0,,,,,,,,,,,,,,,1.0
1708963876.334233,4370.256348,4232.820313,4.0,4.0,100.0,,,,,,,,,,,,,,,1.0
1708963876.342048,4358.974121,4204.615234,4.0,4.0,100.0,,,,,,,,,,,,,,,1.0
1708963876.349863,4355.897461,4174.871582,4.0,4.0,100.0,,,,,,,,,,,,,,,1.0
1708963876.357677,4361.538574,4185.128418,4.0,4.0,100.0,,,,,,,,,,,,,,,1.0
1708963876.365492,4377.94873,4202.563965,4.0,4.0,100.0,,,,,,,,,,,,,,,1.0
1708963876.373307,4381.538574,4186.666504,4.0,4.0,100.0,,,,,,,,,,,,,,,1.0
1708963876.381122,4364.615234,4185.641113,4.0,4.0,100.0,,,,,88.823975,12.213021,3.879721,3.989559,4.542752,57.359158,6.085384,1.391827,2.276783,1.616448,1.0
1708963876.388936,4374.358887,4218.974121,4.0,4.0,100.0,,,,,,,,,,,,,,,1.0
1708963876.396751,4386.153809,4213.846191,4.0,4.0,100.0,,,,,,,,,,,,,,,1.0
1708963876.404566,4372.820313,4187.179688,4.0,4.0,100.0,,,,,,,,,,,,,,,1.0
1708963876.412381,4383.589844,4198.974121,4.0,4.0,100.0,,,,,,,,,,,,,,,1.0
1708963876.420195,4407.179688,4205.641113,4.0,4.0,100.0,,,,,,,,,,,,,,,1.0
1708963876.42801,4391.794922,4190.769043,4.0,4.0,100.0,,,,,,,,,,,,,,,1.0
1708963876.435825,4369.743652,4186.153809,4.0,4.0,100.0,,,,,,,,,,,,,,,1.0
1708963876.443639,4386.666504,4182.05127,4.0,4.0,100.0,,,,,,,,,,,,,,,1.0
1708963876.451454,4399.487305,4165.641113,4.0,4.0,100.0,,,,,,,,,,,,,,,1.0
1708963876.459269,4387.179688,4158.461426,4.0,4.0,100.0,,,,,,,,,,,,,,,1.0
1708963876.467084,4364.102539,4161.025879,4.0,4.0,100.0,,,,,,,,,,,,,,,1.0
1708963876.474898,4366.153809,4174.871582,4.0,4.0,100.0,,,,,,,,,,,,,,,1.0
1708963876.482713,4403.589844,4197.436035,4.0,4.0,100.0,,,,,,,,,,,,,,,1.0
1708963876.490528,4408.717773,4207.692383,4.0,4.0,100.0,,,,,,,,,,,,,,,1.0
1708963876.498343,4382.563965,4212.820313,4.0,4.0,100.0,,,,,,,,,,,,,,,1.0
1708963876.506157,4394.871582,4214.358887,4.0,4.0,100.0,83.333336,4.0,4.0,,53.339169,7.52692,3.736316,4.025803,4.234861,44.155491,5.011862,1.786693,2.196727,1.752953,1.0
1708963876.506157,4394.871582,4214.358887,4.0,4.0,100.0,83.333336,4.0,4.0,,53.339169,7.52692,3.736316,4.025803,4.234861,44.155491,5.011862,1.786693,2.196727,1.752953,1.0
1708963876.513972,4427.692383,4205.641113,4.0,4.0,100.0,,,,,,,,,,,,,,,1.0
1708963876.521787,4417.94873,4188.717773,4.0,4.0,100.0,,,,,,,,,,,,,,,1.0
1708963876.529601,4394.358887,4176.922852,4.0,4.0,100.0,,,,,,,,,,,,,,,1.0
1708963876.537416,4396.410156,4173.333496,4.0,4.0,100.0,,,,,,,,,,,,,,,1.0
1708963876.545231,4397.436035,4165.128418,4.0,4.0,100.0,,,,,,,,,,,,,,,1.0
1708963876.553046,4394.358887,4145.128418,4.0,4.0,100.0,,,,,,,,,,,,,,,1.0
1708963876.56086,4409.743652,4129.230957,4.0,4.0,100.0,,,,,,,,,,,,,,,1.0
1708963876.568675,4433.846191,4134.358887,4.0,4.0,100.0,,,,,,,,,,,,,,,1.0
1708963876.57649,4436.922852,4145.128418,4.0,4.0,100.0,,,,,,,,,,,,,,,1.0
1708963876.584305,4430.769043,4156.922852,4.0,4.0,100.0,,,,,,,,,,,,,,,1.0
1708963876.592119,4430.769043,4162.05127,4.0,4.0,100.0,,,,,,,,,,,,,,,1.0
1708963876.599934,4408.717773,4150.769043,4.0,4.0,100.0,,,,,,,,,,,,,,,1.0
1708963876.607749,4396.922852,4148.205078,4.0,4.0,100.0,,,,,,,,,,,,,,,1.0
1708963876.615564,4428.717773,4153.333496,4.0,4.0,100.0,,,,,,,,,,,,,,,1.0
1708963876.623378,4443.589844,4143.077148,4.0,4.0,100.0,,,,,,,,,,,,,,,1.0
1708963876.631193,4427.692383,4126.666504,4.0,4.0,100.0,,,,,42.883389,7.9353,4.153574,4.234727,4.078366,42.353333,5.562417,2.471802,2.177373,1.881497,1.0
1708963876.639008,4437.436035,4141.538574,4.0,4.0,100.0,,,,,,,,,,,,,,,1.0
1708963876.646822,4447.179688,4170.769043,4.0,4.0,100.0,,,,,,,,,,,,,,,1.0
1708963876.654637,4407.692383,4166.666504,4.0,4.0,100.0,,,,,,,,,,,,,,,1.0
1708963876.662452,4368.717773,4154.871582,4.0,4.0,100.0,,,,,,,,,,,,,,,1.0
1708963876.670267,4338.974121,4156.922852,4.0,4.0,100.0,,,,,,,,,,,,,,,1.0
1708963876.678081,4270.256348,4140.512695,4.0,4.0,100.0,,,,,,,,,,,,,,,1.0
1708963876.685896,4194.871582,4116.410156,4.0,4.0,100.0,,,,,,,,,,,,,,,1.0
1708963876.693711,4148.205078,4131.282227,4.0,4.0,100.0,,,,,,,,,,,,,,,1.0
1708963876.701526,4097.94873,4135.384766,4.0,4.0,100.0,,,,,,,,,,,,,,,1.0
1708963876.70934,4082.05127,4111.282227,4.0,4.0,100.0,,,,,,,,,,,,,,,1.0
1708963876.717155,4143.077148,4134.358887,4.0,4.0,100.0,,,,,,,,,,,,,,,1.0
1708963876.72497,4174.871582,4164.615234,4.0,4.0,100.0,,,,,,,,,,,,,,,1.0
1708963876.732784,4135.384766,4137.94873,4.0,4.0,100.0,,,,,,,,,,,,,,,1.0
1708963876.740599,4132.307617,4117.94873,4.0,4.0,100.0,,,,,,,,,,,,,,,1.0
1708963876.748414,4206.153809,4148.717773,4.0,4.0,100.0,,,,,,,,,,,,,,,1.0
1708963876.756229,4272.820313,4160.0,4.0,4.0,100.0,,,,,46.323334,10.797275,4.935078,4.487718,3.990621,47.553284,6.947393,3.173842,2.172711,1.946058,1.0
1708963876.764043,4294.358887,4130.256348,4.0,4.0,100.0,,,,,,,,,,,,,,,1.0
1708963876.771858,4296.410156,4122.563965,4.0,4.0,100.0,,,,,,,,,,,,,,,1.0
1708963876.779673,4304.615234,4141.025879,4.0,4.0,100.0,,,,,,,,,,,,,,,1.0
1708963876.787488,4337.94873,4143.077148,4.0,4.0,100.0,,,,,,,,,,,,,,,1.0
1708963876.795302,4383.077148,4148.205078,4.0,4.0,100.0,,,,,,,,,,,,,,,1.0
1708963876.803117,4403.077148,4169.230957,4.0,4.0,100.0,,,,,,,,,,,,,,,1.0
1708963876.810932,4411.282227,4171.282227,4.0,4.0,100.0,,,,,,,,,,,,,,,1.0
1708963876.818746,4447.179688,4168.717773,4.0,4.0,100.0,,,,,,,,,,,,,,,1.0
1708963876.826561,4472.307617,4187.179688,4.0,4.0,100.0,,,,,,,,,,,,,,,1.0
1708963876.834376,4476.410156,4203.077148,4.0,4.0,100.0,,,,,,,,,,,,,,,1.0
1708963876.842191,4520.0,4207.179688,4.0,4.0,100.0,,,,,,,,,,,,,,,1.0
1708963876.850005,4571.794922,4209.743652,4.0,4.0,100.0,,,,,,,,,,,,,,,1.0
1708963876.85782,4581.025879,4210.256348,4.0,4.0,100.0,,,,,,,,,,,,,,,1.0
1708963876.865635,4596.922852,4221.538574,4.0,4.0,100.0,,,,,,,,,,,,,,,1.0
1708963876.873449,4609.230957,4215.384766,4.0,4.0,100.0,,,,,,,,,,,,,,,1.0
1708963876.881264,4596.922852,4176.922852,4.0,4.0,100.0,,,,,52.854828,14.050945,5.799025,4.575103,3.892233,54.290756,8.528043,3.659315,2.127239,1.924038,1.0
1708963876.889079,4620.0,4169.230957,4.0,4.0,100.0,,,,,,,,,,,,,,,1.0
1708963876.896894,4648.205078,4184.615234,4.0,4.0,100.0,,,,,,,,,,,,,,,1.0
1708963876.904709,4622.563965,4171.794922,4.0,4.0,100.0,,,,,,,,,,,,,,,1.0
1708963876.912523,4608.717773,4175.897461,4.0,4.0,100.0,,,,,,,,,,,,,,,1.0
1708963876.920338,4641.025879,4215.384766,4.0,4.0,100.0,,,,,,,,,,,,,,,1.0
1708963876.928153,4659.487305,4238.461426,4.0,4.0,100.0,,,,,,,,,,,,,,,1.0
1708963876.935967,4658.974121,4241.538574,4.0,4.0,100.0,,,,,,,,,,,,,,,1.0
1708963876.943782,4672.307617,4245.641113,4.0,4.0,100.0,,,,,,,,,,,,,,,1.0
1708963876.951597,4690.256348,4247.692383,4.0,4.0,100.0,,,,,,,,,,,,,,,1.0
1708963876.959412,4678.974121,4235.897461,4.0,4.0,100.0,,,,,,,,,,,,,,,1.0
1708963876.967226,4663.589844,4211.794922,4.0,4.0,100.0,,,,,,,,,,,,,,,1.0
1708963876.975041,4688.717773,4208.717773,4.0,4.0,100.0,,,,,,,,,,,,,,,1.0
1708963876.982856,4708.717773,4216.922852,4.0,4.0,100.0,,,,,,,,,,,,,,,1.0
1708963876.990671,4697.94873,4192.307617,4.0,4.0,100.0,,,,,,,,,,,,,,,1.0
1708963876.998485,4698.974121,4173.333496,4.0,4.0,100.0,,,,,,,,,,,,,,,1.0
1708963877.0063,4707.179688,4177.94873,4.0,4.0,100.0,83.333336,4.0,4.0,,59.877377,17.171043,6.591027,4.401842,3.757055,58.551388,10.037955,3.887754,2.021012,1.830797,1.0
1708963883.008011,4268.205078,4205.641113,4.0,4.0,50.0,25.0,4.0,4.0,,29.723577,24.068201,8.889727,2.948023,3.024001,25.575306,18.181581,13.095306,1.90281,2.411197,-1.0
1708963883.015826,4261.025879,4210.769043,4.0,4.0,50.0,,,,,,,,,,,,,,,-1.0
1708963883.023641,4249.230957,4215.384766,4.0,4.0,50.0,,,,,,,,,,,,,,,-1.0
1708963883.031455,4237.436035,4216.410156,4.0,4.0,50.0,,,,,,,,,,,,,,,-1.0
1708963883.03927,4236.922852,4220.512695,4.0,4.0,50.0,,,,,,,,,,,,,,,-1.0
1708963883.047085,4265.128418,4229.230957,4.0,4.0,50.0,,,,,,,,,,,,,,,-1.0
1708963883.0549,4274.871582,4228.205078,4.0,4.0,50.0,,,,,,,,,,,,,,,-1.0
1708963883.062714,4260.0,4213.333496,4.0,4.0,50.0,,,,,,,,,,,,,,,-1.0
1708963883.070529,4273.846191,4210.256348,4.0,4.0,50.0,,,,,,,,,,,,,,,-1.0
1708963883.078344,4288.717773,4217.436035,4.0,4.0,50.0,,,,,,,,,,,,,,,-1.0
1708963883.086159,4286.666504,4225.641113,4.0,4.0,50.0,,,,,,,,,,,,,,,-1.0
1708963883.093973,4295.384766,4225.128418,4.0,4.0,50.0,,,,,,,,,,,,,,,-1.0
1708963883.101788,4296.922852,4212.820313,4.0,4.0,50.0,,,,,,,,,,,,,,,-1.0
1708963883.109603,4290.256348,4214.358887,4.0,4.0,50.0,,,,,,,,,,,,,,,-1.0
1708963883.117417,4302.563965,4235.897461,4.0,4.0,50.0,,,,,,,,,,,,,,,-1.0
1708963883.125232,4295.897461,4238.974121,4.0,4.0,50.0,,,,,,,,,,,,,,,-1.0
1708963883.133047,4284.102539,4223.077148,4.0,4.0,50.0,,,,,26.686228,22.303181,7.88752,2.865258,2.799122,23.082432,16.278282,12.601906,1.941689,2.491557,-1.0
1708963883.140862,4324.615234,4223.077148,4.0,4.0,50.0,,,,,,,,,,,,,,,-1.0
1708963883.148677,4357.94873,4240.0,4.0,4.0,50.0,,,,,,,,,,,,,,,-1.0
1708963883.156491,4323.589844,4255.384766,4.0,4.0,50.0,,,,,,,,,,,,,,,-1.0
1708963883.164306,4288.717773,4257.436035,4.0,4.0,50.0,,,,,,,,,,,,,,,-1.0
1708963883.172121,4306.666504,4248.717773,4.0,4.0,50.0,,,,,,,,,,,,,,,-1.0
1708963883.179935,4350.256348,4266.153809,4.0,4.0,50.0,,,,,,,,,,,,,,,-1.0
1708963883.18775,4370.769043,4302.05127,4.0,4.0,50.0,,,,,,,,,,,,,,,-1.0
1708963883.195565,4354.358887,4309.743652,4.0,4.0,50.0,,,,,,,,,,,,,,,-1.0
1708963883.20338,4341.025879,4298.974121,4.0,4.0,50.0,,,,,,,,,,,,,,,-1.0
1708963883.211194,4343.077148,4293.333496,4.0,4.0,50.0,,,,,,,,,,,,,,,-1.0
1708963883.219009,4332.820313,4284.102539,4.0,4.0,50.0,,,,,,,,,,,,,,,-1.0
1708963883.226824,4320.512695,4270.256348,4.0,4.0,50.0,,,,,,,,,,,,,,,-1.0
1708963883.234638,4316.410156,4268.205078,4.0,4.0,50.0,,,,,,,,,,,,,,,-1.0
1708963883.242453,4310.256348,4276.410156,4.0,4.0,50.0,,,,,,,,,,,,,,,-1.0
1708963883.250268,4327.692383,4277.436035,4.0,4.0,50.0,,,,,,,,,,,,,,,-1.0
1708963883.258083,4340.0,4264.615234,4.0,4.0,50.0,,,,,22.473589,19.38043,6.624913,2.738242,2.704859,18.899609,14.156919,11.46194,2.230511,2.413935,-1.0
1708963883.265897,4313.333496,4258.974121,4.0,4.0,50.0,,,,,,,,,,,,,,,-1.0
1708963883.273712,4310.769043,4270.256348,4.0,4.0,50.0,,,,,,,,,,,,,,,-1.0
1708963883.281527,4325.641113,4265.128418,4.0,4.0,50.0,,,,,,,,,,,,,,,-1.0
1708963883.289342,4296.922852,4231.282227,4.0,4.0,50.0,,,,,,,,,,,,,,,-1.0
1708963883.297156,4268.717773,4223.077148,4.0,4.0,50.0,,,,,,,,,,,,,,,-1.0
1708963883.304971,4267.692383,4246.666504,4.0,4.0,50.0,,,,,,,,,,,,,,,-1.0
1708963883.312786,4258.461426,4245.128418,4.0,4.0,50.0,,,,,,,,,,,,,,,-1.0
1708963883.3206,4252.307617,4228.205078,4.0,4.0,50.0,,,,,,,,,,,,,,,-1.0
1708963883.328415,4248.205078,4221.538574,4.0,4.0,50.0,,,,,,,,,,,,,,,-1.0
1708963883.33623,4240.512695,4224.615234,4.0,4.0,50.0,,,,,,,,,,,,,,,-1.0
1708963883.344045,4294.871582,4242.563965,4.0,4.0,50.0,,,,,,,,,,,,,,,-1.0
1708963883.351859,4346.153809,4264.102539,4.0,4.0,50.0,,,,,,,,,,,,,,,-1.0
1708963883.359674,4280.0,4247.692383,4.0,4.0,50.0,,,,,,,,,,,,,,,-1.0
1708963883.367489,4212.820313,4210.256348,4.0,4.0,50.0,,,,,,,,,,,,,,,-1.0
1708963883.375304,4257.94873,4201.538574,4.0,4.0,50.0,,,,,,,,,,,,,,,-1.0
1708963883.383118,4282.563965,4205.128418,4.0,4.0,50.0,,,,,18.206652,15.85162,5.307953,2.573186,2.719893,14.395998,12.068406,9.839402,2.719332,2.187536,-1.0
1708963883.390933,4217.436035,4191.794922,4.0,4.0,50.0,,,,,,,,,,,,,,,-1.0
1708963883.398748,4189.230957,4165.641113,4.0,4.0,50.0,,,,,,,,,,,,,,,-1.0
1708963883.406562,4223.589844,4151.794922,4.0,4.0,50.0,,,,,,,,,,,,,,,-1.0
1708963883.414377,4246.153809,4153.333496,4.0,4.0,50.0,,,,,,,,,,,,,,,-1.0
1708963883.422192,4271.794922,4176.410156,4.0,4.0,50.0,,,,,,,,,,,,,,,-1.0
1708963883.430007,4288.717773,4206.153809,4.0,4.0,50.0,,,,,,,,,,,,,,,-1.0
1708963883.437821,4256.922852,4198.461426,4.0,4.0,66.666664,,,,,,,,,,,,,,,-1.0
1708963883.445636,4233.333496,4175.384766,4.0,4.0,66.666664,,,,,,,,,,,,,,,-1.0
1708963883.453451,4271.282227,4199.487305,4.0,4.0,41.666668,,,,,,,,,,,,,,,-1.0
1708963883.461265,4295.897461,4240.512695,4.0,4.0,41.666668,,,,,,,,,,,,,,,-1.0
1708963883.46908,4281.025879,4241.538574,4.0,4.0,41.666668,,,,,,,,,,,,,,,-1.0
1708963883.476895,4284.615234,4226.666504,4.0,4.0,50.0,,,,,,,,,,,,,,,-1.0
1708963883.48471,4282.563965,4205.641113,4.0,4.0,50.0,,,,,,,,,,,,,,,-1.0
1708963883.492525,4267.692383,4194.358887,4.0,4.0,50.0,,,,,,,,,,,,,,,-1.0
1708963883.500339,4277.436035,4211.282227,4.0,4.0,50.0,,,,,,,,,,,,,,,-1.0
1708963883.508154,4280.0,4224.102539,4.0,4.0,50.0,25.0,4.0,4.0,,14.113286,12.460043,4.167737,2.387436,2.797241,10.607032,10.297962,8.044456,3.227206,1.868837,-1.0
1708963945.525838,4362.563965,4322.563965,4.0,4.0,100.0,75.0,4.0,4.0,,65.909447,15.68138,7.995384,2.61751,1.122617,68.327347,17.406443,5.963431,3.535473,1.000417,0.0
1708963945.533653,4344.615234,4328.717773,4.0,4.0,100.0,,,,,,,,,,,,,,,0.0
1708963945.541468,4394.871582,4365.641113,4.0,4.0,100.0,,,,,,,,,,,,,,,0.0
1708963945.549282,4404.615234,4371.794922,4.0,4.0,100.0,,,,,,,,,,,,,,,0.0
1708963945.557097,4363.589844,4342.05127,4.0,4.0,100.0,,,,,,,,,,,,,,,0.0
1708963945.564912,4382.563965,4357.94873,4.0,4.0,100.0,,,,,,,,,,,,,,,0.0
1708963945.572727,4399.487305,4377.436035,4.0,4.0,100.0,,,,,,,,,,,,,,,0.0
1708963945.580541,4359.487305,4341.538574,4.0,4.0,100.0,,,,,,,,,,,,,,,0.0
1708963945.588356,4360.512695,4325.128418,4.0,4.0,100.0,,,,,,,,,,,,,,,0.0
1708963945.596171,4366.666504,4327.692383,4.0,4.0,100.0,,,,,,,,,,,,,,,0.0
1708963945.603985,4324.102539,4298.461426,4.0,4.0,100.0,,,,,,,,,,,,,,,0.0
1708963945.6118,4314.871582,4290.256348,4.0,4.0,100.0,,,,,,,,,,,,,,,0.0
1708963945.619615,4329.230957,4316.922852,4.0,4.0,100.0,,,,,,,,,,,,,,,0.0
1708963945.62743,4312.307617,4299.487305,4.0,4.0,100.0,,,,,,,,,,,,,,,0.0
1708963945.635244,4287.692383,4248.205078,4.0,4.0,100.0,,,,,,,,,,,,,,,0.0
1708963945.643059,4280.512695,4238.461426,4.0,4.0,100.0,,,,,,,,,,,,,,,0.0
1708963945.650874,4294.358887,4259.487305,4.0,4.0,100.0,,,,,61.720039,16.788977,5.775902,1.862463,1.212075,62.871162,17.603285,4.082972,2.982035,0.825634,0.0
1708963945.658689,4316.922852,4287.179688,4.0,4.0,100.0,,,,,,,,,,,,,,,0.0
1708963945.666503,4327.692383,4304.102539,4.0,4.0,100.0,,,,,,,,,,,,,,,0.0
1708963945.674318,4344.102539,4299.487305,4.0,4.0,100.0,,,,,,,,,,,,,,,0.0
1708963945.682133,4356.922852,4292.820313,4.0,4.0,100.0,,,,,,,,,,,,,,,0.0
1708963945.689947,4347.179688,4311.794922,4.0,4.0,100.0,,,,,,,,,,,,,,,0.0
1708963945.697762,4336.922852,4332.307617,4.0,4.0,100.0,,,,,,,,,,,,,,,0.0
1708963945.705577,4325.128418,4318.461426,4.0,4.0,100.0,,,,,,,,,,,,,,,0.0
1708963945.713392,4325.641113,4303.077148,4.0,4.0,100.0,,,,,,,,,,,,,,,0.0
1708963945.721207,4345.641113,4313.846191,4.0,4.0,100.0,,,,,,,,,,,,,,,0.0
1708963945.729021,4352.307617,4329.743652,4.0,4.0,100.0,,,,,,,,,,,,,,,0.0
1708963945.736836,4343.077148,4332.820313,4.0,4.0,100.0,,,,,,,,,,,,,,,0.0
1708963945.744651,4342.05127,4331.282227,4.0,4.0,100.0,,,,,,,,,,,,,,,0.0
1708963945.752465,4361.025879,4334.358887,4.0,4.0,100.0,,,,,,,,,,,,,,,0.0
1708963945.76028,4377.94873,4342.563965,4.0,4.0,100.0,,,,,,,,,,,,,,,0.0
1708963945.768095,4367.179688,4347.179688,4.0,4.0,100.0,,,,,,,,,,,,,,,0.0
1708963945.77591,4340.0,4325.128418,4.0,4.0,100.0,,,,,68.239433,21.845428,5.420204,1.675293,1.416747,68.458282,21.726168,3.899144,2.682475,0.756182,0.0
1708963945.783724,4342.05127,4306.153809,4.0,4.0,100.0,,,,,,,,,,,,,,,0.0
1708963945.791539,4360.512695,4325.641113,4.0,4.0,100.0,,,,,,,,,,,,,,,0.0
1708963945.799354,4366.153809,4349.230957,4.0,4.0,100.0,,,,,,,,,,,,,,,0.0
1708963945.807168,4367.692383,4341.025879,4.0,4.0,100.0,,,,,,,,,,,,,,,0.0
1708963945.814983,4365.641113,4342.563965,4.0,4.0,100.0,,,,,,,,,,,,,,,0.0
1708963945.822798,4371.282227,4371.282227,4.0,4.0,100.0,,,,,,,,,,,,,,,0.0
1708963945.830613,4380.512695,4375.897461,4.0,4.0,100.0,,,,,,,,,,,,,,,0.0
1708963945.838427,4377.436035,4348.717773,4.0,4.0,100.0,,,,,,,,,,,,,,,0.0
1708963945.846242,4368.717773,4347.179688,4.0,4.0,100.0,,,,,,,,,,,,,,,0.0
1708963945.854057,4378.461426,4374.871582,4.0,4.0,100.0,,,,,,,,,,,,,,,0.0
1708963945.861872,4408.717773,4385.641113,4.0,4.0,100.0,,,,,,,,,,,,,,,0.0
1708963945.869686,4415.897461,4382.05127,4.0,4.0,100.0,,,,,,,,,,,,,,,0.0
1708963945.877501,4402.563965,4378.974121,4.0,4.0,100.0,,,,,,,,,,,,,,,0.0
1708963945.885316,4403.077148,4370.256348,4.0,4.0,100.0,,,,,,,,,,,,,,,0.0
1708963945.89313,4392.307617,4360.512695,4.0,4.0,100.0,,,,,,,,,,,,,,,0.0
1708963945.900945,4369.743652,4348.717773,4.0,4.0,100.0,,,,,86.734169,32.428665,7.474679,2.002704,1.675384,85.666573,31.398781,5.527411,2.673133,0.81916,0.0
1708963945.90876,4376.922852,4351.794922,4.0,4.0,100.0,,,,,,,,,,,,,,,0.0
1708963945.916575,4392.307617,4379.487305,4.0,4.0,100.0,,,,,,,,,,,,,,,0.0
1708963945.924389,4382.05127,4386.153809,4.0,4.0,100.0,,,,,,,,,,,,,,,0.0
1708963945.932204,4376.922852,4357.94873,4.0,4.0,100.0,,,,,,,,,,,,,,,0.0
1708963945.940019,4397.94873,4362.563965,4.0,4.0,100.0,,,,,,,,,,,,,,,0.0
1708963945.947834,4407.692383,4390.256348,4.0,4.0,100.0,,,,,,,,,,,,,,,0.0
1708963945.955648,4400.0,4389.743652,4.0,4.0,100.0,,,,,,,,,,,,,,,0.0
1708963945.963463,4395.384766,4382.05127,4.0,4.0,100.0,,,,,,,,,,,,,,,0.0
1708963945.971278,4402.05127,4389.743652,4.0,4.0,100.0,,,,,,,,,,,,,,,0.0
1708963945.979092,4402.563965,4394.358887,4.0,4.0,100.0,,,,,,,,,,,,,,,0.0
1708963945.986907,4374.871582,4390.256348,4.0,4.0,100.0,,,,,,,,,,,,,,,0.0
1708963945.994722,4361.025879,4376.922852,4.0,4.0,100.0,,,,,,,,,,,,,,,0.0
1708963946.002537,4382.563965,4359.487305,4.0,4.0,100.0,,,,,,,,,,,,,,,0.0
1708963946.010351,4396.410156,4365.128418,4.0,4.0,100.0,,,,,,,,,,,,,,,0.0
1708963946.018166,4386.666504,4368.205078,4.0,4.0,100.0,,,,,,,,,,,,,,,0.0
1708963946.025981,4379.487305,4340.0,4.0,4.0,100.0,75.0,4.0,4.0,,116.42572,48.345242,11.526205,2.718955,1.924603,113.18512,46.459785,8.501996,2.974525,1.012363,0.0
1708963946.025981,4379.487305,4340.0,4.0,4.0,100.0,75.0,4.0,4.0,,116.42572,48.345242,11.526205,2.718955,1.924603,113.18512,46.459785,8.501996,2.974525,1.012363,0.0
1708963946.033795,4366.153809,4335.384766,4.0,4.0,100.0,,,,,,,,,,,,,,,0.0
1708963946.04161,4363.077148,4372.307617,4.0,4.0,100.0,,,,,,,,,,,,,,,0.0
1708963946.049425,4384.615234,4377.436035,4.0,4.0,100.0,,,,,,,,,,,,,,,0.0
1708963946.05724,4390.769043,4364.615234,4.0,4.0,100.0,,,,,,,,,,,,,,,0.0
1708963946.065055,4388.205078,4386.666504,4.0,4.0,100.0,,,,,,,,,,,,,,,0.0
1708963946.072869,4404.615234,4400.512695,4.0,4.0,100.0,,,,,,,,,,,,,,,0.0
1708963946.080684,4401.538574,4378.461426,4.0,4.0,100.0,,,,,,,,,,,,,,,0.0
1708963946.088499,4380.0,4376.410156,4.0,4.0,100.0,,,,,,,,,,,,,,,0.0
1708963946.096313,4380.512695,4389.743652,4.0,4.0,100.0,,,,,,,,,,,,,,,0.0
1708963946.104128,4403.077148,4384.615234,4.0,4.0,100.0,,,,,,,,,,,,,,,0.0
1708963946.111943,4417.436035,4389.230957,4.0,4.0,100.0,,,,,,,,,,,,,,,0.0
1708963946.119758,4410.256348,4401.025879,4.0,4.0,100.0,,,,,,,,,,,,,,,0.0
1708963946.127572,4388.205078,4387.179688,4.0,4.0,100.0,,,,,,,,,,,,,,,0.0
1708963946.135387,4370.769043,4363.589844,4.0,4.0,100.0,,,,,,,,,,,,,,,0.0
1708963946.143202,4393.333496,4375.384766,4.0,4.0,100.0,,,,,,,,,,,,,,,0.0
1708963946.151017,4438.974121,4405.641113,4.0,4.0,100.0,,,,,149.403885,66.43412,16.262566,3.614343,2.107248,143.281265,63.791748,11.869313,3.52011,1.29282,0.0
1708963946.158831,4444.615234,4410.256348,4.0,4.0,100.0,,,,,,,,,,,,,,,0.0
1708963946.166646,4410.256348,4390.256348,4.0,4.0,100.0,,,,,,,,,,,,,,,0.0
1708963946.174461,4395.384766,4378.461426,4.0,4.0,100.0,,,,,,,,,,,,,,,0.0
1708963946.182275,4400.512695,4377.94873,4.0,4.0,100.0,,,,,,,,,,,,,,,0.0
1708963946.19009,4384.615234,4367.692383,4.0,4.0,100.0,,,,,,,,,,,,,,,0.0
1708963946.197905,4358.461426,4351.794922,4.0,4.0,100.0,,,,,,,,,,,,,,,0.0
1708963946.20572,4360.0,4347.692383,4.0,4.0,100.0,,,,,,,,,,,,,,,0.0
1708963946.213534,4370.256348,4350.256348,4.0,4.0,100.0,,,,,,,,,,,,,,,0.0
1708963946.221349,4336.922852,4343.589844,4.0,4.0,100.0,,,,,,,,,,,,,,,0.0
1708963946.229164,4311.794922,4326.153809,4.0,4.0,100.0,,,,,,,,,,,,,,,0.0
1708963946.236979,4343.077148,4319.487305,4.0,4.0,100.0,,,,,,,,,,,,,,,0.0
1708963946.244793,4359.487305,4325.641113,4.0,4.0,100.0,,,,,,,,,,,,,,,0.0
1708963946.252608,4347.179688,4325.128418,4.0,4.0,100.0,,,,,,,,,,,,,,,0.0
1708963946.260423,4360.0,4327.692383,4.0,4.0,100.0,,,,,,,,,,,,,,,0.0
1708963946.268237,4375.384766,4349.230957,4.0,4.0,100.0,,,,,,,,,,,,,,,0.0
1708963946.276052,4368.205078,4373.333496,4.0,4.0,100.0,,,,,174.310211,81.198845,19.960941,4.429068,2.181861,165.374374,78.006042,14.451035,4.138516,1.594466,0.0
1708963946.283867,4366.153809,4372.820313,4.0,4.0,100.0,,,,,,,,,,,,,,,0.0
1708963946.291682,4359.487305,4353.333496,4.0,4.0,100.0,,,,,,,,,,,,,,,0.0
1708963946.299496,4340.512695,4346.666504,4.0,4.0,100.0,,,,,,,,,,,,,,,0.0
1708963946.307311,4332.820313,4344.102539,4.0,4.0,100.0,,,,,,,,,,,,,,,0.0
1708963946.315126,4331.282227,4317.436035,4.0,4.0,100.0,,,,,,,,,,,,,,,0.0
1708963946.32294,4324.102539,4294.358887,4.0,4.0,100.0,,,,,,,,,,,,,,,0.0
1708963946.330755,4318.461426,4303.077148,4.0,4.0,100.0,,,,,,,,,,,,,,,0.0
1708963946.33857,4320.512695,4310.769043,4.0,4.0,100.0,,,,,,,,,,,,,,,0.0
1708963946.346385,4314.358887,4289.230957,4.0,4.0,100.0,,,,,,,,,,,,,,,0.0
1708963946.3542,4300.0,4263.589844,4.0,4.0,100.0,,,,,,,,,,,,,,,0.0
1708963946.362014,4293.333496,4263.589844,4.0,4.0,100.0,,,,,,,,,,,,,,,0.0
1708963946.369829,4286.666504,4268.717773,4.0,4.0,100.0,,,,,,,,,,,,,,,0.0
1708963946.377644,4286.666504,4267.692383,4.0,4.0,100.0,,,,,,,,,,,,,,,0.0
1708963946.385458,4296.410156,4278.461426,4.0,4.0,100.0,,,,,,,,,,,,,,,0.0
1708963946.393273,4283.077148,4280.0,4.0,4.0,100.0,,,,,,,,,,,,,,,0.0
1708963946.401088,4275.384766,4273.333496,4.0,4.0,100.0,,,,,181.078827,87.162453,21.211906,4.909129,2.138028,170.423843,83.825615,15.287239,4.587705,1.845599,0.0
1708963946.408903,4312.307617,4290.256348,4.0,4.0,100.0,,,,,,,,,,,,,,,0.0
1708963946.416717,4312.820313,4294.871582,4.0,4.0,100.0,,,,,,,,,,,,,,,0.0
1708963946.424532,4270.769043,4269.743652,4.0,4.0,100.0,,,,,,,,,,,,,,,0.0
1708963946.432347,4282.563965,4271.794922,4.0,4.0,100.0,,,,,,,,,,,,,,,0.0
1708963946.440162,4326.153809,4301.025879,4.0,4.0,100.0,,,,,,,,,,,,,,,0.0
1708963946.447976,4342.563965,4310.256348,4.0,4.0,100.0,,,,,,,,,,,,,,,0.0
1708963946.455791,4353.333496,4308.717773,4.0,4.0,100.0,,,,,,,,,,,,,,,0.0
1708963946.463606,4336.922852,4302.05127,4.0,4.0,100.0,,,,,,,,,,,,,,,0.0
1708963946.47142,4316.410156,4305.128418,4.0,4.0,100.0,,,,,,,,,,,,,,,0.0
1708963946.479235,4314.871582,4306.153809,4.0,4.0,100.0,,,,,,,,,,,,,,,0.0
1708963946.48705,4288.205078,4269.743652,4.0,4.0,100.0,,,,,,,,,,,,,,,0.0
1708963946.494865,4266.666504,4238.461426,4.0,4.0,100.0,,,,,,,,,,,,,,,0.0
1708963946.502679,4290.769043,4264.102539,4.0,4.0,100.0,,,,,,,,,,,,,,,0.0
1708963946.510494,4319.487305,4301.025879,4.0,4.0,100.0,,,,,,,,,,,,,,,0.0
1708963946.518309,4314.358887,4302.05127,4.0,4.0,100.0,,,,,,,,,,,,,,,0.0
1708963946.526123,4289.230957,4295.897461,4.0,4.0,100.0,75.0,4.0,4.0,,165.673965,81.761345,19.576622,4.933805,2.000068,155.165222,78.794403,14.069252,4.669508,1.988519,0.0
1708963946.526123,4289.230957,4295.897461,4.0,4.0,100.0,75.0,4.0,4.0,,165.673965,81.761345,19.576622,4.933805,2.000068,155.165222,78.794403,14.069252,4.669508,1.988519,0.0
1708963946.533938,4285.128418,4295.384766,4.0,4.0,100.0,,,,,,,,,,,,,,,0.0
1708963946.541753,4334.871582,4294.358887,4.0,4.0,100.0,,,,,,,,,,,,,,,0.0
1708963946.549568,4363.589844,4303.589844,4.0,4.0,100.0,,,,,,,,,,,,,,,0.0
1708963946.557382,4314.871582,4309.743652,4.0,4.0,100.0,,,,,,,,,,,,,,,0.0
1708963946.565197,4301.538574,4295.384766,4.0,4.0,100.0,,,,,,,,,,,,,,,0.0
1708963946.573012,4336.922852,4280.512695,4.0,4.0,100.0,,,,,,,,,,,,,,,0.0
1708963946.580827,4333.333496,4281.538574,4.0,4.0,100.0,,,,,,,,,,,,,,,0.0
1708963946.588641,4294.358887,4266.153809,4.0,4.0,100.0,,,,,,,,,,,,,,,0.0
1708963946.596456,4285.641113,4256.410156,4.0,4.0,100.0,,,,,,,,,,,,,,,0.0
1708963946.604271,4326.153809,4285.128418,4.0,4.0,100.0,,,,,,,,,,,,,,,0.0
1708963946.612085,4363.077148,4305.128418,4.0,4.0,100.0,,,,,,,,,,,,,,,0.0
1708963946.6199,4350.256348,4284.615234,4.0,4.0,100.0,,,,,,,,,,,,,,,0.0
1708963946.627715,4309.230957,4277.436035,4.0,4.0,100.0,,,,,,,,,,,,,,,0.0
1708963946.63553,4311.282227,4300.512695,4.0,4.0,100.0,,,,,,,,,,,,,,,0.0
1708963946.643345,4366.153809,4314.871582,4.0,4.0,100.0,,,,,,,,,,,,,,,0.0
1708963946.651159,4382.05127,4322.563965,4.0,4.0,100.0,,,,,131.892838,66.432243,15.666205,4.559165,1.820709,123.440559,64.307693,11.195397,4.326268,1.999833,0.0
1708963946.658974,4335.384766,4322.05127,4.0,4.0,100.0,,,,,,,,,,,,,,,-1.0
1708963946.666789,4325.641113,4319.487305,4.0,4.0,100.0,,,,,,,,,,,,,,,-1.0
1708963946.674603,4367.692383,4332.307617,4.0,4.0,100.0,,,,,,,,,,,,,,,-1.0
1708963946.682418,4364.102539,4330.256348,4.0,4.0,100.0,,,,,,,,,,,,,,,-1.0
1708963946.690233,4311.282227,4296.410156,4.0,4.0,100.0,,,,,,,,,,,,,,,-1.0
1708963946.698048,4303.077148,4278.974121,4.0,4.0,100.0,,,,,,,,,,,,,,,-1.0
1708963946.705862,4352.820313,4304.102539,4.0,4.0,100.0,,,,,,,,,,,,,,,-1.0
1708963946.713677,4375.384766,4315.384766,4.0,4.0,100.0,,,,,,,,,,,,,,,-1.0
1708963946.721492,4346.153809,4292.820313,4.0,4.0,100.0,,,,,,,,,,,,,,,-1.0
1708963946.729306,4312.820313,4276.410156,4.0,4.0,100.0,,,,,,,,,,,,,,,-1.0
1708963946.737121,4300.0,4286.153809,4.0,4.0,100.0,,,,,,,,,,,,,,,-1.0
1708963946.744936,4298.974121,4294.358887,4.0,4.0,100.0,,,,,,,,,,,,,,,-1.0
1708963946.752751,4313.846191,4273.333496,4.0,4.0,100.0,,,,,,,,,,,,,,,-1.0
1708963946.760565,4315.384766,4257.436035,4.0,4.0,100.0,,,,,,,,,,,,,,,-1.0
1708963946.76838,4284.615234,4269.230957,4.0,4.0,100.0,,,,,,,,,,,,,,,-1.0
1708963946.776195,4292.307617,4273.333496,4.0,4.0,100.0,,,,,89.888359,46.330223,10.81416,3.973246,1.669166,84.563667,45.225414,7.621226,3.679683,1.899787,-1.0
1708963946.78401,4337.94873,4267.179688,4.0,4.0,100.0,,,,,,,,,,,,,,,-1.0
1708963946.791824,4358.461426,4283.589844,4.0,4.0,100.0,,,,,,,,,,,,,,,-1.0
1708963946.799639,4356.410156,4302.563965,4.0,4.0,100.0,,,,,,,,,,,,,,,-1.0
1708963946.807454,4352.820313,4304.102539,4.0,4.0,100.0,,,,,,,,,,,,,,,-1.0
1708963946.815268,4342.563965,4309.743652,4.0,4.0,100.0,,,,,,,,,,,,,,,-1.0
1708963946.823083,4343.077148,4312.820313,4.0,4.0,100.0,,,,,,,,,,,,,,,-1.0
1708963946.830898,4356.922852,4304.102539,4.0,4.0,100.0,,,,,,,,,,,,,,,-1.0
1708963946.838713,4325.128418,4295.384766,4.0,4.0,100.0,,,,,,,,,,,,,,,-1.0
1708963946.846527,4295.384766,4291.282227,4.0,4.0,100.0,,,,,,,,,,,,,,,-1.0
1708963946.854342,4349.230957,4289.230957,4.0,4.0,100.0,,,,,,,,,,,,,,,-1.0
1708963946.862157,4390.769043,4302.05127,4.0,4.0,100.0,,,,,,,,,,,,,,,-1.0
1708963946.869972,4352.820313,4331.794922,4.0,4.0,100.0,,,,,,,,,,,,,,,-1.0
1708963946.877786,4340.0,4338.461426,4.0,4.0,100.0,,,,,,,,,,,,,,,-1.0
1708963946.885601,4368.717773,4305.641113,4.0,4.0,100.0,,,,,,,,,,,,,,,-1.0
1708963946.893416,4352.820313,4293.333496,4.0,4.0,100.0,,,,,,,,,,,,,,,-1.0
1708963946.90123,4327.179688,4325.128418,4.0,4.0,100.0,,,,,51.547966,27.669519,6.485044,3.404169,1.643538,49.37598,27.441883,4.459259,2.962114,1.743001,-1.0
1708963946.909045,4339.487305,4332.820313,4.0,4.0,100.0,,,,,,,,,,,,,,,-1.0
1708963946.91686,4348.717773,4318.461426,4.0,4.0,100.0,,,,,,,,,,,,,,,-1.0
1708963946.924675,4352.820313,4328.205078,4.0,4.0,100.0,,,,,,,,,,,,,,,-1.0
1708963946.932489,4362.563965,4322.563965,4.0,4.0,100.0,,,,,,,,,,,,,,,-1.0
1708963946.940304,4335.897461,4283.589844,4.0,4.0,100.0,,,,,,,,,,,,,,,-1.0
1708963946.948119,4275.384766,4242.563965,4.0,4.0,100.0,,,,,,,,,,,,,,,-1.0
1708963946.955933,4212.307617,4189.230957,4.0,4.0,100.0,,,,,,,,,,,,,,,-1.0
1708963946.963748,4124.102539,4098.974121,4.0,4.0,100.0,,,,,,,,,,,,,,,-1.0
1708963946.971563,4006.153809,3988.205078,4.0,4.0,100.0,,,,,,,,,,,,,,,-1.0
1708963946.979378,3911.794922,3895.384521,4.0,4.0,100.0,,,,,,,,,,,,,,,-1.0
1708963946.987193,3880.0,3868.718018,4.0,4.0,100.0,,,,,,,,,,,,,,,-1.0
1708963946.995007,3894.871826,3888.205078,4.0,4.0,100.0,,,,,,,,,,,,,,,-1.0
1708963947.002822,3943.076904,3906.666748,4.0,4.0,100.0,,,,,,,,,,,,,,,-1.0
1708963947.010637,4024.102539,3967.692383,4.0,4.0,100.0,,,,,,,,,,,,,,,-1.0
1708963947.018451,4101.538574,4069.230713,4.0,4.0,100.0,,,,,,,,,,,,,,,-1.0
1708963947.026266,4167.179688,4137.436035,4.0,4.0,100.0,75.0,4.0,4.0,,25.845583,14.916757,3.615985,3.023255,1.839538,25.882545,15.188543,2.4448,2.391919,1.594099,-1.0
1708963947.026266,4167.179688,4137.436035,4.0,4.0,100.0,75.0,4.0,4.0,,25.845583,14.916757,3.615985,3.023255,1.839538,25.882545,15.188543,2.4448,2.391919,1.594099,-1.0
1708963947.034081,4231.794922,4191.794922,4.0,4.0,100.0,,,,,,,,,,,,,,,-1.0
1708963947.041896,4310.256348,4285.128418,4.0,4.0,100.0,,,,,,,,,,,,,,,-1.0
1708963947.04971,4384.615234,4346.666504,4.0,4.0,100.0,,,,,,,,,,,,,,,-1.0
1708963947.057525,4397.94873,4327.179688,4.0,4.0,100.0,,,,,,,,,,,,,,,-1.0
1708963947.06534,4371.282227,4320.512695,4.0,4.0,100.0,,,,,,,,,,,,,,,-1.0
1708963947.073155,4383.077148,4363.077148,4.0,4.0,100.0,,,,,,,,,,,,,,,-1.0
1708963947.080969,4424.102539,4378.974121,4.0,4.0,100.0,,,,,,,,,,,,,,,-1.0
1708963947.088784,4426.153809,4363.077148,4.0,4.0,100.0,,,,,,,,,,,,,,,-1.0
1708963947.096599,4427.179688,4391.282227,4.0,4.0,100.0,,,,,,,,,,,,,,,-1.0
1708963947.104413,4461.538574,4439.487305,4.0,4.0,100.0,,,,,,,,,,,,,,,-1.0
1708963947.112228,4479.487305,4444.102539,4.0,4.0,100.0,,,,,,,,,,,,,,,-1.0
1708963947.120043,4482.05127,4448.717773,4.0,4.0,100.0,,,,,,,,,,,,,,,-1.0
1708963947.127858,4492.820313,4468.717773,4.0,4.0,100.0,,,,,,,,,,,,,,,-1.0
1708963947.135672,4514.358887,4469.743652,4.0,4.0,100.0,,,,,,,,,,,,,,,-1.0
1708963947.143487,4518.974121,4463.077148,4.0,4.0,100.0,,,,,,,,,,,,,,,-1.0
1708963947.151302,4504.615234,4471.282227,4.0,4.0,100.0,,,,,16.424255,9.523933,2.593383,2.874794,2.302891,17.570288,9.773644,1.714588,2.072314,1.498531,-1.0
1708963947.159116,4508.205078,4467.692383,4.0,4.0,100.0,,,,,,,,,,,,,,,-1.0
1708963947.166931,4526.153809,4458.461426,4.0,4.0,100.0,,,,,,,,,,,,,,,-1.0
1708963947.174746,4525.641113,4467.692383,4.0,4.0,100.0,,,,,,,,,,,,,,,-1.0
1708963947.182561,4500.512695,4457.94873,4.0,4.0,100.0,,,,,,,,,,,,,,,-1.0
1708963947.190375,4465.641113,4425.641113,4.0,4.0,100.0,,,,,,,,,,,,,,,-1.0
1708963947.19819,4431.282227,4412.820313,4.0,4.0,100.0,,,,,,,,,,,,,,,-1.0
1708963947.206005,4424.615234,4415.897461,4.0,4.0,100.0,,,,,,,,,,,,,,,-1.0
1708963947.21382,4459.487305,4421.025879,4.0,4.0,100.0,,,,,,,,,,,,,,,-1.0
1708963947.221634,4485.128418,4431.794922,4.0,4.0,100.0,,,,,,,,,,,,,,,-1.0
1708963947.229449,4478.974121,4436.410156,4.0,4.0,100.0,,,,,,,,,,,,,,,-1.0
1708963947.237264,4479.487305,4443.589844,4.0,4.0,100.0,,,,,,,,,,,,,,,-1.0
1708963947.245078,4497.436035,4462.05127,4.0,4.0,100.0,,,,,,,,,,,,,,,-1.0
1708963947.252893,4502.563965,4457.94873,4.0,4.0,100.0,,,,,,,,,,,,,,,-1.0
1708963947.260708,4507.692383,4453.333496,4.0,4.0,100.0,,,,,,,,,,,,,,,-1.0
1708963947.268523,4522.05127,4480.0,4.0,4.0,100.0,,,,,,,,,,,,,,,1.0
1708963947.276338,4519.487305,4496.922852,4.0,4.0,100.0,,,,,27.551611,12.418497,3.616706,2.865039,2.980678,28.898722,11.97898,2.303956,1.958811,1.473545,1.0
1708963947.284152,4512.307617,4483.589844,4.0,4.0,100.0,,,,,,,,,,,,,,,1.0
1708963947.291967,4531.282227,4479.487305,4.0,4.0,100.0,,,,,,,,,,,,,,,1.0
1708963947.299782,4544.102539,4496.922852,4.0,4.0,100.0,,,,,,,,,,,,,,,1.0
1708963947.307596,4522.563965,4500.512695,4.0,4.0,100.0,,,,,,,,,,,,,,,1.0
1708963947.315411,4511.282227,4478.461426,4.0,4.0,100.0,,,,,,,,,,,,,,,1.0
1708963947.323226,4517.94873,4460.512695,4.0,4.0,100.0,,,,,,,,,,,,,,,1.0
1708963947.331041,4507.692383,4475.384766,4.0,4.0,100.0,,,,,,,,,,,,,,,1.0
1708963947.338855,4502.563965,4483.589844,4.0,4.0,100.0,,,,,,,,,,,,,,,1.0
1708963947.34667,4514.871582,4464.102539,4.0,4.0,100.0,,,,,,,,,,,,,,,1.0
1708963947.354485,4512.307617,4466.153809,4.0,4.0,100.0,,,,,,,,,,,,,,,1.0
1708963947.362299,4496.922852,4472.820313,4.0,4.0,100.0,,,,,,,,,,,,,,,1.0
1708963947.370114,4478.974121,4444.615234,4.0,4.0,100.0,,,,,,,,,,,,,,,1.0
1708963947.377929,4451.282227,4409.743652,4.0,4.0,100.0,,,,,,,,,,,,,,,1.0
1708963947.385744,4444.615234,4391.794922,4.0,4.0,100.0,,,,,,,,,,,,,,,1.0
1708963947.393558,4445.128418,4379.487305,4.0,4.0,100.0,,,,,,,,,,,,,,,1.0
1708963947.401373,4405.641113,4375.897461,4.0,4.0,100.0,,,,,67.130302,24.444801,6.561864,2.876848,3.713239,67.818901,22.388319,4.05759,1.934378,1.5146,1.0
1708963947.409188,4349.230957,4357.436035,4.0,4.0,100.0,,,,,,,,,,,,,,,1.0
1708963947.417003,4320.512695,4308.717773,4.0,4.0,100.0,,,,,,,,,,,,,,,1.0
1708963947.424817,4333.333496,4284.615234,4.0,4.0,100.0,,,,,,,,,,,,,,,1.0
1708963947.432632,4358.461426,4310.256348,4.0,4.0,100.0,,,,,,,,,,,,,,,1.0
1708963947.440447,4355.897461,4325.128418,4.0,4.0,100.0,,,,,,,,,,,,,,,1.0
1708963947.448261,4335.897461,4301.025879,4.0,4.0,100.0,,,,,,,,,,,,,,,1.0
1708963947.456076,4327.179688,4275.384766,4.0,4.0,100.0,,,,,,,,,,,,,,,1.0
1708963947.463891,4337.436035,4282.05127,4.0,4.0,100.0,,,,,,,,,,,,,,,1.0
1708963947.471706,4343.077148,4296.922852,4.0,4.0,100.0,,,,,,,,,,,,,,,1.0
1708963947.47952,4332.307617,4284.102539,4.0,4.0,100.0,,,,,,,,,,,,,,,1.0
1708963947.487335,4314.871582,4267.692383,4.0,4.0,100.0,,,,,,,,,,,,,,,1.0
1708963947.49515,4295.897461,4261.025879,4.0,4.0,100.0,,,,,,,,,,,,,,,1.0
1708963947.502965,4289.230957,4254.358887,4.0,4.0,100.0,,,,,,,,,,,,,,,1.0
1708963947.510779,4314.871582,4262.05127,4.0,4.0,100.0,,,,,,,,,,,,,,,1.0
1708963947.518594,4348.205078,4285.641113,4.0,4.0,100.0,,,,,,,,,,,,,,,1.0
1708963947.526409,4356.410156,4317.94873,4.0,4.0,100.0,75.0,4.0,4.0,,140.170853,45.493484,10.9852,2.872028,4.285271,139.166489,40.712887,6.719329,1.909853,1.599702,1.0
1708963959.529832,4294.358887,4258.461426,4.0,4.0,100.0,75.0,4.0,4.0,,322.000946,56.90226,2.882977,2.980373,3.037871,115.067635,29.17577,1.126933,2.207591,1.131857,0.0
1708963959.537646,4302.563965,4278.461426,4.0,4.0,100.0,,,,,,,,,,,,,,,0.0
1708963959.545461,4267.692383,4235.384766,4.0,4.0,100.0,,,,,,,,,,,,,,,0.0
1708963959.553276,4253.846191,4215.897461,4.0,4.0,100.0,,,,,,,,,,,,,,,0.0
1708963959.56109,4277.94873,4237.436035,4.0,4.0,100.0,,,,,,,,,,,,,,,0.0
1708963959.568905,4266.666504,4229.230957,4.0,4.0,100.0,,,,,,,,,,,,,,,0.0
1708963959.57672,4258.974121,4220.0,4.0,4.0,100.0,,,,,,,,,,,,,,,0.0
1708963959.584535,4290.769043,4242.563965,4.0,4.0,100.0,,,,,,,,,,,,,,,0.0
1708963959.592349,4292.820313,4245.128418,4.0,4.0,100.0,,,,,,,,,,,,,,,0.0
1708963959.600164,4249.743652,4214.358887,4.0,4.0,100.0,,,,,,,,,,,,,,,0.0
1708963959.607979,4229.230957,4197.94873,4.0,4.0,100.0,,,,,,,,,,,,,,,0.0
1708963959.615794,4224.102539,4195.384766,4.0,4.0,100.0,,,,,,,,,,,,,,,0.0
1708963959.623608,4218.974121,4189.743652,4.0,4.0,100.0,,,,,,,,,,,,,,,0.0
1708963959.631423,4247.179688,4197.94873,4.0,4.0,100.0,,,,,,,,,,,,,,,0.0
1708963959.639238,4269.743652,4212.820313,4.0,4.0,100.0,,,,,,,,,,,,,,,0.0
1708963959.647052,4264.615234,4224.102539,4.0,4.0,100.0,,,,,,,,,,,,,,,0.0
1708963959.654867,4279.487305,4236.410156,4.0,4.0,100.0,,,,,340.052002,39.702606,2.814385,3.749491,2.674527,132.042709,22.68539,1.18539,2.210925,1.20732,0.0
1708963959.662682,4287.692383,4245.128418,4.0,4.0,100.0,,,,,,,,,,,,,,,0.0
1708963959.670497,4277.94873,4261.538574,4.0,4.0,100.0,,,,,,,,,,,,,,,0.0
1708963959.678311,4302.563965,4278.974121,4.0,4.0,100.0,,,,,,,,,,,,,,,0.0
1708963959.686126,4337.94873,4289.230957,4.0,4.0,100.0,,,,,,,,,,,,,,,0.0
1708963959.693941,4336.922852,4287.179688,4.0,4.0,100.0,,,,,,,,,,,,,,,0.0
1708963959.701755,4333.846191,4275.384766,4.0,4.0,100.0,,,,,,,,,,,,,,,0.0
1708963959.70957,4338.461426,4281.025879,4.0,4.0,100.0,,,,,,,,,,,,,,,0.0
1708963959.717385,4325.641113,4289.230957,4.0,4.0,100.0,,,,,,,,,,,,,,,0.0
1708963959.7252,4313.333496,4267.179688,4.0,4.0,100.0,,,,,,,,,,,,,,,0.0
1708963959.733014,4305.641113,4263.589844,4.0,4.0,100.0,,,,,,,,,,,,,,,0.0
1708963959.740829,4308.205078,4292.307617,4.0,4.0,100.0,,,,,,,,,,,,,,,0.0
1708963959.748644,4318.461426,4280.512695,4.0,4.0,100.0,,,,,,,,,,,,,,,0.0
1708963959.756459,4316.922852,4271.794922,4.0,4.0,100.0,,,,,,,,,,,,,,,0.0
1708963959.764273,4320.0,4299.487305,4.0,4.0,100.0,,,,,,,,,,,,,,,0.0
1708963959.772088,4336.922852,4286.153809,4.0,4.0,100.0,,,,,,,,,,,,,,,0.0
1708963959.779903,4336.922852,4269.230957,4.0,4.0,100.0,,,,,367.650177,26.595955,3.085497,4.608478,2.303825,156.495804,17.721563,1.423734,2.300413,1.248594,0.0
1708963959.787717,4328.205078,4301.025879,4.0,4.0,100.0,,,,,,,,,,,,,,,0.0
1708963959.795532,4333.333496,4309.743652,4.0,4.0,100.0,,,,,,,,,,,,,,,0.0
1708963959.803347,4335.897461,4296.410156,4.0,4.0,100.0,,,,,,,,,,,,,,,0.0
1708963959.811162,4338.974121,4319.487305,4.0,4.0,100.0,,,,,,,,,,,,,,,0.0
1708963959.818977,4364.615234,4339.487305,4.0,4.0,100.0,,,,,,,,,,,,,,,0.0
1708963959.826791,4384.102539,4334.358887,4.0,4.0,100.0,,,,,,,,,,,,,,,0.0
1708963959.834606,4379.487305,4343.077148,4.0,4.0,100.0,,,,,,,,,,,,,,,0.0
1708963959.842421,4386.666504,4353.333496,4.0,4.0,100.0,,,,,,,,,,,,,,,0.0
1708963959.850235,4402.563965,4345.128418,4.0,4.0,100.0,,,,,,,,,,,,,,,0.0
1708963959.85805,4385.641113,4331.794922,4.0,4.0,100.0,,,,,,,,,,,,,,,0.0
1708963959.865865,4354.358887,4323.077148,4.0,4.0,100.0,,,,,,,,,,,,,,,0.0
1708963959.87368,4359.487305,4318.974121,4.0,4.0,100.0,,,,,,,,,,,,,,,0.0
1708963959.881494,4381.025879,4322.563965,4.0,4.0,100.0,,,,,,,,,,,,,,,0.0
1708963959.889309,4374.871582,4325.641113,4.0,4.0,100.0,,,,,,,,,,,,,,,0.0
1708963959.897124,4367.179688,4324.102539,4.0,4.0,100.0,,,,,,,,,,,,,,,0.0
1708963959.904938,4386.153809,4334.358887,4.0,4.0,100.0,,,,,386.993439,18.660408,3.515478,5.354621,2.001675,177.384491,14.502099,1.720793,2.478054,1.264222,0.0
1708963959.912753,4389.230957,4343.589844,4.0,4.0,100.0,,,,,,,,,,,,,,,0.0
1708963959.920568,4374.871582,4344.615234,4.0,4.0,100.0,,,,,,,,,,,,,,,0.0
1708963959.928383,4389.230957,4355.384766,4.0,4.0,100.0,,,,,,,,,,,,,,,0.0
1708963959.936197,4406.666504,4355.384766,4.0,4.0,100.0,,,,,,,,,,,,,,,0.0
1708963959.944012,4396.410156,4341.025879,4.0,4.0,100.0,,,,,,,,,,,,,,,0.0
1708963959.951827,4391.794922,4346.666504,4.0,4.0,100.0,,,,,,,,,,,,,,,0.0
1708963959.959642,4372.307617,4348.717773,4.0,4.0,100.0,,,,,,,,,,,,,,,0.0
1708963959.967456,4336.922852,4326.666504,4.0,4.0,100.0,,,,,,,,,,,,,,,0.0
1708963959.975271,4360.0,4328.205078,4.0,4.0,100.0,,,,,,,,,,,,,,,0.0
1708963959.983086,4402.563965,4343.077148,4.0,4.0,100.0,,,,,,,,,,,,,,,0.0
1708963959.9909,4372.307617,4329.230957,4.0,4.0,100.0,,,,,,,,,,,,,,,0.0
1708963959.998715,4339.487305,4317.94873,4.0,4.0,100.0,,,,,,,,,,,,,,,0.0
1708963960.00653,4382.05127,4321.538574,4.0,4.0,100.0,,,,,,,,,,,,,,,0.0
1708963960.014345,4418.974121,4323.077148,4.0,4.0,100.0,,,,,,,,,,,,,,,0.0
1708963960.022159,4393.333496,4334.871582,4.0,4.0,100.0,,,,,,,,,,,,,,,0.0
1708963960.029974,4367.692383,4344.102539,4.0,4.0,100.0,75.0,4.0,4.0,,378.227173,14.574965,3.897758,5.766006,1.788244,182.998291,12.46627,1.962723,2.695753,1.271398,0.0
1708963960.029974,4367.692383,4344.102539,4.0,4.0,100.0,75.0,4.0,4.0,,378.227173,14.574965,3.897758,5.766006,1.788244,182.998291,12.46627,1.962723,2.695753,1.271398,0.0
1708963960.037789,4377.436035,4336.922852,4.0,4.0,100.0,,,,,,,,,,,,,,,0.0
1708963960.045604,4384.615234,4325.128418,4.0,4.0,100.0,,,,,,,,,,,,,,,0.0
1708963960.053418,4367.692383,4314.871582,4.0,4.0,100.0,,,,,,,,,,,,,,,0.0
1708963960.061233,4351.794922,4308.717773,4.0,4.0,100.0,,,,,,,,,,,,,,,0.0
1708963960.069048,4369.743652,4323.589844,4.0,4.0,100.0,,,,,,,,,,,,,,,0.0
1708963960.076862,4395.897461,4344.102539,4.0,4.0,100.0,,,,,,,,,,,,,,,0.0
1708963960.084677,4380.512695,4335.897461,4.0,4.0,100.0,,,,,,,,,,,,,,,0.0
1708963960.092492,4361.025879,4326.153809,4.0,4.0,100.0,,,,,,,,,,,,,,,0.0
1708963960.100307,4383.077148,4337.94873,4.0,4.0,100.0,,,,,,,,,,,,,,,0.0
1708963960.108121,4394.871582,4336.922852,4.0,4.0,100.0,,,,,,,,,,,,,,,0.0
1708963960.115936,4377.436035,4312.307617,4.0,4.0,100.0,,,,,,,,,,,,,,,0.0
1708963960.123751,4384.102539,4316.410156,4.0,4.0,100.0,,,,,,,,,,,,,,,0.0
1708963960.131565,4377.94873,4338.974121,4.0,4.0,100.0,,,,,,,,,,,,,,,0.0
1708963960.13938,4348.717773,4335.897461,4.0,4.0,100.0,,,,,,,,,,,,,,,0.0
1708963960.147195,4366.666504,4331.282227,4.0,4.0,100.0,,,,,,,,,,,,,,,0.0
1708963960.15501,4402.563965,4351.794922,4.0,4.0,100.0,,,,,333.216583,12.05538,4.096626,5.710366,1.641218,168.954376,10.779767,2.08638,2.864376,1.283595,0.0
1708963960.162825,4406.153809,4370.769043,4.0,4.0,100.0,,,,,,,,,,,,,,,0.0
1708963960.170639,4408.205078,4384.615234,4.0,4.0,100.0,,,,,,,,,,,,,,,0.0
1708963960.178454,4402.05127,4392.307617,4.0,4.0,100.0,,,,,,,,,,,,,,,0.0
1708963960.186269,4382.563965,4384.102539,4.0,4.0,100.0,,,,,,,,,,,,,,,0.0
1708963960.194083,4384.615234,4386.153809,4.0,4.0,100.0,,,,,,,,,,,,,,,0.0
1708963960.201898,4392.820313,4398.974121,4.0,4.0,100.0,,,,,,,,,,,,,,,0.0
1708963960.209713,4374.871582,4392.307617,4.0,4.0,100.0,,,,,,,,,,,,,,,0.0
1708963960.217528,4357.436035,4384.102539,4.0,4.0,100.0,,,,,,,,,,,,,,,0.0
1708963960.225342,4370.256348,4395.384766,4.0,4.0,100.0,,,,,,,,,,,,,,,0.0
1708963960.233157,4394.871582,4398.461426,4.0,4.0,100.0,,,,,,,,,,,,,,,0.0
1708963960.240972,4401.025879,4389.743652,4.0,4.0,100.0,,,,,,,,,,,,,,,0.0
1708963960.248787,4381.025879,4381.025879,4.0,4.0,100.0,,,,,,,,,,,,,,,0.0
1708963960.256601,4364.615234,4360.512695,4.0,4.0,100.0,,,,,,,,,,,,,,,0.0
1708963960.264416,4377.94873,4362.05127,4.0,4.0,100.0,,,,,,,,,,,,,,,0.0
1708963960.272231,4390.769043,4394.358887,4.0,4.0,100.0,,,,,,,,,,,,,,,0.0
1708963960.280045,4371.794922,4393.333496,4.0,4.0,100.0,,,,,258.040131,9.641122,4.073835,5.209098,1.544366,137.055573,9.033694,2.067504,2.894438,1.300079,0.0
1708963960.28786,4365.128418,4367.179688,4.0,4.0,100.0,,,,,,,,,,,,,,,0.0
1708963960.295675,4395.897461,4372.820313,4.0,4.0,100.0,,,,,,,,,,,,,,,0.0
1708963960.30349,4398.974121,4378.461426,4.0,4.0,100.0,,,,,,,,,,,,,,,0.0
1708963960.311304,4367.692383,4356.922852,4.0,4.0,100.0,,,,,,,,,,,,,,,0.0
1708963960.319119,4356.922852,4344.102539,4.0,4.0,100.0,,,,,,,,,,,,,,,0.0
1708963960.326934,4358.974121,4340.0,4.0,4.0,100.0,,,,,,,,,,,,,,,0.0
1708963960.334749,4364.615234,4344.102539,4.0,4.0,100.0,,,,,,,,,,,,,,,0.0
1708963960.342563,4368.717773,4352.820313,4.0,4.0,100.0,,,,,,,,,,,,,,,0.0
1708963960.350378,4351.794922,4343.589844,4.0,4.0,100.0,,,,,,,,,,,,,,,0.0
1708963960.358193,4341.538574,4334.871582,4.0,4.0,100.0,,,,,,,,,,,,,,,0.0
1708963960.366007,4373.846191,4355.897461,4.0,4.0,100.0,,,,,,,,,,,,,,,0.0
1708963960.373822,4393.846191,4377.94873,4.0,4.0,100.0,,,,,,,,,,,,,,,0.0
1708963960.381637,4372.820313,4364.102539,4.0,4.0,100.0,,,,,,,,,,,,,,,0.0
1708963960.389452,4370.256348,4349.743652,4.0,4.0,100.0,,,,,,,,,,,,,,,0.0
1708963960.397266,4385.641113,4370.769043,4.0,4.0,100.0,,,,,,,,,,,,,,,0.0
1708963960.405081,4380.512695,4393.333496,4.0,4.0,100.0,,,,,170.475586,7.478782,3.993106,4.427861,1.513771,96.493111,7.500521,1.948304,2.743193,1.305791,0.0
1708963960.412896,4370.769043,4381.538574,4.0,4.0,100.0,,,,,,,,,,,,,,,0.0
1708963960.42071,4371.282227,4357.94873,4.0,4.0,100.0,,,,,,,,,,,,,,,0.0
1708963960.428525,4366.666504,4360.0,4.0,4.0,100.0,,,,,,,,,,,,,,,0.0
1708963960.43634,4371.794922,4372.820313,4.0,4.0,100.0,,,,,,,,,,,,,,,0.0
1708963960.444155,4381.025879,4361.025879,4.0,4.0,100.0,,,,,,,,,,,,,,,0.0
1708963960.45197,4362.563965,4338.974121,4.0,4.0,100.0,,,,,,,,,,,,,,,0.0
1708963960.459784,4350.256348,4343.077148,4.0,4.0,100.0,,,,,,,,,,,,,,,0.0
1708963960.467599,4364.615234,4357.94873,4.0,4.0,100.0,,,,,,,,,,,,,,,0.0
1708963960.475414,4362.563965,4343.077148,4.0,4.0,100.0,,,,,,,,,,,,,,,0.0
1708963960.483228,4348.717773,4328.717773,4.0,4.0,100.0,,,,,,,,,,,,,,,0.0
1708963960.491043,4365.128418,4346.153809,4.0,4.0,100.0,,,,,,,,,,,,,,,0.0
1708963960.498858,4407.179688,4358.974121,4.0,4.0,100.0,,,,,,,,,,,,,,,0.0
1708963960.506673,4428.717773,4360.512695,4.0,4.0,100.0,,,,,,,,,,,,,,,0.0
1708963960.514487,4433.333496,4373.846191,4.0,4.0,100.0,,,,,,,,,,,,,,,0.0
1708963960.522302,4463.589844,4387.179688,4.0,4.0,100.0,,,,,,,,,,,,,,,0.0
1708963960.530117,4480.512695,4363.589844,4.0,4.0,100.0,83.333336,4.0,4.0,,94.075554,6.11369,3.996706,3.580264,1.569517,59.024654,6.580715,1.822717,2.426386,1.283339,0.0
1708963960.530117,4480.512695,4363.589844,4.0,4.0,100.0,83.333336,4.0,4.0,,94.075554,6.11369,3.996706,3.580264,1.569517,59.024654,6.580715,1.822717,2.426386,1.283339,0.0
1708963960.537932,4441.538574,4330.769043,4.0,4.0,100.0,,,,,,,,,,,,,,,0.0
1708963960.545746,4407.179688,4336.410156,4.0,4.0,100.0,,,,,,,,,,,,,,,0.0
1708963960.553561,4431.794922,4354.358887,4.0,4.0,100.0,,,,,,,,,,,,,,,0.0
1708963960.561376,4436.922852,4347.179688,4.0,4.0,100.0,,,,,,,,,,,,,,,0.0
1708963960.56919,4398.974121,4350.769043,4.0,4.0,100.0,,,,,,,,,,,,,,,0.0
1708963960.577005,4391.282227,4372.307617,4.0,4.0,100.0,,,,,,,,,,,,,,,0.0
1708963960.58482,4407.179688,4353.333496,4.0,4.0,100.0,,,,,,,,,,,,,,,0.0
1708963960.592635,4406.666504,4316.922852,4.0,4.0,100.0,,,,,,,,,,,,,,,0.0
1708963960.600449,4395.384766,4318.461426,4.0,4.0,100.0,,,,,,,,,,,,,,,0.0
1708963960.608264,4394.871582,4330.256348,4.0,4.0,100.0,,,,,,,,,,,,,,,0.0
1708963960.616079,4376.922852,4317.94873,4.0,4.0,100.0,,,,,,,,,,,,,,,0.0
1708963960.623893,4361.538574,4315.897461,4.0,4.0,100.0,,,,,,,,,,,,,,,0.0
1708963960.631708,4383.077148,4337.94873,4.0,4.0,100.0,,,,,,,,,,,,,,,0.0
1708963960.639523,4400.0,4356.922852,4.0,4.0,100.0,,,,,,,,,,,,,,,0.0
1708963960.647338,4393.846191,4353.846191,4.0,4.0,100.0,,,,,,,,,,,,,,,0.0
1708963960.655152,4385.641113,4327.179688,4.0,4.0,100.0,,,,,43.976177,5.650994,4.127479,2.842508,1.715787,33.150551,6.314505,1.746237,2.009767,1.229927,0.0
1708963960.662967,4379.487305,4302.563965,4.0,4.0,100.0,,,,,,,,,,,,,,,0.0
1708963960.670782,4384.615234,4294.358887,4.0,4.0,100.0,,,,,,,,,,,,,,,0.0
1708963960.678597,4417.436035,4303.077148,4.0,4.0,100.0,,,,,,,,,,,,,,,0.0
1708963960.686411,4433.846191,4318.974121,4.0,4.0,100.0,,,,,,,,,,,,,,,0.0
1708963960.694226,4428.205078,4339.487305,4.0,4.0,100.0,,,,,,,,,,,,,,,0.0
1708963960.702041,4448.205078,4351.282227,4.0,4.0,100.0,,,,,,,,,,,,,,,0.0
1708963960.709855,4466.153809,4354.358887,4.0,4.0,100.0,,,,,,,,,,,,,,,0.0
1708963960.71767,4463.077148,4351.282227,4.0,4.0,100.0,,,,,,,,,,,,,,,0.0
1708963960.725485,4459.487305,4341.025879,4.0,4.0,100.0,,,,,,,,,,,,,,,0.0
1708963960.7333,4473.333496,4349.743652,4.0,4.0,100.0,,,,,,,,,,,,,,,0.0
1708963960.741115,4492.307617,4383.589844,4.0,4.0,100.0,,,,,,,,,,,,,,,0.0
1708963960.748929,4489.743652,4398.461426,4.0,4.0,100.0,,,,,,,,,,,,,,,0.0
1708963960.756744,4477.94873,4392.820313,4.0,4.0,100.0,,,,,,,,,,,,,,,0.0
1708963960.764559,4491.794922,4402.563965,4.0,4.0,100.0,,,,,,,,,,,,,,,0.0
1708963960.772373,4518.461426,4411.282227,4.0,4.0,100.0,,,,,,,,,,,,,,,0.0
1708963960.780188,4509.743652,4398.461426,4.0,4.0,100.0,,,,,19.197599,5.840754,4.32769,2.284952,1.923122,18.891615,6.390577,1.729808,1.58952,1.163956,0.0
1708963960.788003,4486.153809,4393.846191,4.0,4.0,100.0,,,,,,,,,,,,,,,0.0
1708963960.795818,4472.820313,4398.461426,4.0,4.0,100.0,,,,,,,,,,,,,,,0.0
1708963960.803632,4480.0,4397.436035,4.0,4.0,100.0,,,,,,,,,,,,,,,0.0
1708963960.811447,4486.666504,4385.641113,4.0,4.0,100.0,,,,,,,,,,,,,,,0.0
1708963960.819262,4458.461426,4376.410156,4.0,4.0,100.0,,,,,,,,,,,,,,,0.0
1708963960.827076,4451.794922,4382.05127,4.0,4.0,100.0,,,,,,,,,,,,,,,0.0
1708963960.834891,4487.692383,4400.512695,4.0,4.0,100.0,,,,,,,,,,,,,,,0.0
1708963960.842706,4515.384766,4423.077148,4.0,4.0,100.0,,,,,,,,,,,,,,,0.0
1708963960.85052,4515.384766,4441.025879,4.0,4.0,100.0,,,,,,,,,,,,,,,0.0
1708963960.858335,4505.641113,4443.589844,4.0,4.0,100.0,,,,,,,,,,,,,,,0.0
1708963960.86615,4496.922852,4428.205078,4.0,4.0,100.0,,,,,,,,,,,,,,,0.0
1708963960.873965,4495.897461,4415.897461,4.0,4.0,100.0,,,,,,,,,,,,,,,0.0
1708963960.88178,4496.410156,4414.871582,4.0,4.0,100.0,,,,,,,,,,,,,,,0.0
1708963960.889594,4489.230957,4417.94873,4.0,4.0,100.0,,,,,,,,,,,,,,,0.0
1708963960.897409,4487.179688,4412.307617,4.0,4.0,100.0,,,,,,,,,,,,,,,0.0
1708963960.905224,4472.820313,4388.205078,4.0,4.0,100.0,,,,,10.69256,6.232285,4.519176,1.895375,2.132038,12.790049,6.373772,1.762045,1.278758,1.118325,0.0
1708963960.913038,4443.077148,4381.538574,4.0,4.0,100.0,,,,,,,,,,,,,,,0.0
1708963960.920853,4448.205078,4394.358887,4.0,4.0,100.0,,,,,,,,,,,,,,,0.0
1708963960.928668,4464.615234,4383.077148,4.0,4.0,100.0,,,,,,,,,,,,,,,0.0
1708963960.936483,4453.333496,4360.512695,4.0,4.0,100.0,,,,,,,,,,,,,,,0.0
