Timestamp,EEG.AF3,EEG.Pz,EEG.AF4,CQ.AF3,CQ.Pz,CQ.AF4,CQ.Overall,EQ.OVERALL,EQ.AF3,EQ.Pz,EQ.AF4,PM.Attention.IsActive,PM.Attention.Scaled,PM.Attention.Raw,PM.Attention.Min,PM.Attention.Max,PM.Engagement.IsActive,PM.Engagement.Scaled,PM.Engagement.Raw,PM.Engagement.Min,PM.Engagement.Max,PM.Excitement.IsActive,PM.Excitement.Scaled,PM.Excitement.Raw,PM.Excitement.Min,PM.Excitement.Max,PM.LongTermExcitement,PM.Stress.IsActive,PM.Stress.Scaled,PM.Stress.Raw,PM.Stress.Min,PM.Stress.Max,PM.Relaxation.IsActive,PM.Relaxation.Scaled,PM.Relaxation.Raw,PM.Relaxation.Min,PM.Relaxation.Max,PM.Interest.IsActive,PM.Interest.Scaled,PM.Interest.Raw,PM.Interest.Min,PM.Interest.Max,PM.Focus.IsActive,PM.Focus.Scaled,PM.Focus.Raw,PM.Focus.Min,PM.Focus.Max,POW.AF3.Theta,POW.AF3.Alpha,POW.AF3.BetaL,POW.AF3.BetaH,POW.AF3.Gamma,POW.Pz.Theta,POW.Pz.Alpha,POW.Pz.BetaL,POW.Pz.BetaH,POW.Pz.Gamma,POW.AF4.Theta,POW.AF4.Alpha,POW.AF4.BetaL,POW.AF4.BetaH,POW.AF4.Gamma,label
1709135091.35952,4617.436035,4185.128418,4372.307617,4.0,4.0,4.0,100.0,66.666664,1.0,4.0,4.0,,,,,,,,,,,,,,,,,,,,,,,,,,,,,,,,,,,,,555.209961,71.935585,3.286809,4.82888,2.369183,25.205904,2.313131,0.788267,1.266225,0.728942,135.510864,13.857756,1.689871,2.405956,0.778756,1.0
1709135091.484556,4597.436035,4148.205078,4311.794922,4.0,4.0,4.0,100.0,,,,,,,,,,,,,,,,,,,,,,,,,,,,,,,,,,,,,,,,,506.244232,70.683212,4.040689,4.07642,2.207597,20.435947,2.298032,0.669161,1.194958,0.672914,123.947609,11.415784,1.702585,2.389943,0.767048,1.0
1709135091.609591,4540.512695,4165.641113,4312.820313,4.0,4.0,4.0,100.0,,,,,,,,,,,,,,,,,,,,,,,,,,,,,,,,,,,,,,,,,423.023865,66.832039,4.88724,3.307105,1.969836,17.301304,2.416251,0.763966,1.141338,0.647684,105.873756,9.28804,1.791772,2.303771,0.744654,1.0
1709135091.734627,4490.769043,4146.666504,4308.205078,4.0,4.0,4.0,100.0,,,,,,,,,,,,,,,,,,,,,,,,,,,,,,,,,,,,,,,,,331.128937,60.390572,5.424873,2.721575,1.710761,15.816118,2.783178,1.110997,1.104055,0.655414,87.654144,7.566993,1.954788,2.118995,0.708093,1.0
1709135091.859662,4453.333496,4155.384766,4348.205078,4.0,4.0,4.0,100.0,91.666664,3.0,4.0,4.0,,,,,,,,,,,,,,,,,,,,,,,,,,,,,,,,,,,,,241.142838,50.874256,5.413169,2.409439,1.476573,15.07665,3.329354,1.648357,1.064939,0.680443,70.519547,6.07455,2.145369,1.837817,0.658389,1.0
1709135091.859662,4453.333496,4155.384766,4348.205078,4.0,4.0,4.0,100.0,91.666664,3.0,4.0,4.0,,,,,,,,,,,,,,,,,,,,,,,,,,,,,,,,,,,,,241.142838,50.874256,5.413169,2.409439,1.476573,15.07665,3.329354,1.648357,1.064939,0.680443,70.519547,6.07455,2.145369,1.837817,0.658389,1.0
1709135091.984698,4449.230957,4131.282227,4321.538574,4.0,4.0,4.0,100.0,,,,,,,,,,,,,,,,,,,,,,,,,,,,,,,,,,,,,,,,,167.94046,38.724209,4.831433,2.331394,1.29616,14.429228,3.882217,2.219813,1.00352,0.699718,56.135216,4.747538,2.297291,1.50637,0.602631,1.0
1709135092.109733,4353.846191,4174.871582,4382.05127,4.0,4.0,4.0,100.0,,,,,,,,,,,,,,,,,,,,,,,,,,,,,,,,,,,,,,,,,108.132828,25.745567,3.934952,2.372506,1.185274,13.388749,4.301471,2.650211,0.916632,0.695447,42.776196,3.712817,2.352287,1.21075,0.551695,-1.0
1709135092.234769,4377.94873,4194.358887,4428.205078,4.0,4.0,4.0,100.0,,,,,,,,,,,,,,,,,,,,,,,,,,,,,,,,,,,,,,,,,64.017502,14.455442,3.068631,2.421004,1.156743,11.791386,4.503417,2.801271,0.825332,0.666508,30.484962,3.159745,2.278933,1.03479,0.519159,-1.0
1709135092.359805,4768.205078,4218.461426,4637.436035,4.0,4.0,4.0,100.0,100.0,4.0,4.0,4.0,,,,,,,,,,,,,,,,,,,,,,,,,,,,,,,,,,,,,34.064774,7.165812,2.58585,2.424925,1.215659,9.762382,4.499595,2.633137,0.768658,0.625261,19.9095,3.112066,2.076833,0.997393,0.517271,-1.0
1709135092.359805,4768.205078,4218.461426,4637.436035,4.0,4.0,4.0,100.0,100.0,4.0,4.0,4.0,,,,,,,,,,,,,,,,,,,,,,,,,,,,,,,,,,,,,34.064774,7.165812,2.58585,2.424925,1.215659,9.762382,4.499595,2.633137,0.768658,0.625261,19.9095,3.112066,2.076833,0.997393,0.517271,-1.0
1709135092.48484,4220.512695,4221.538574,4496.922852,4.0,4.0,4.0,100.0,,,,,,,,,,,,,,,,,,,,,,,,,,,,,,,,,,,,,,,,,17.591496,3.898195,2.480635,2.36185,1.350909,7.676867,4.337187,2.217074,0.778345,0.588133,12.544486,3.419014,1.764729,1.053395,0.551479,-1.0
1709135092.609876,3942.05127,4253.846191,4513.846191,4.0,4.0,4.0,100.0,,,,,,,,,,,,,,,,,,,,,,,,,,,,,,,,,,,,,,,,,17.904394,3.933869,2.59233,2.244284,1.557294,5.968932,4.045576,1.689135,0.86524,0.567241,9.946007,3.903981,1.397787,1.135941,0.619483,-1.0
1709135092.734911,3939.487061,4210.769043,4418.974121,4.0,4.0,4.0,100.0,,,,,,,,,,,,,,,,,,,,,,,,,,,,,,,,,,,,,,,,,40.294701,6.718658,2.813162,2.140052,1.871632,4.774303,3.639277,1.225544,1.01928,0.56455,13.872519,4.539794,1.057053,1.204255,0.713053,-1.0
1709135092.859947,4029.743652,4237.94873,4432.820313,4.0,4.0,4.0,100.0,100.0,4.0,4.0,4.0,,,,,,,,,,,,,,,,,,,,,,,,,,,,,,,,,,,,,85.257591,12.54877,3.025834,2.20331,2.360343,4.289509,3.121592,0.956282,1.222474,0.575779,26.285467,5.370484,0.864344,1.276014,0.820444,-1.0
1709135092.859947,4029.743652,4237.94873,4432.820313,4.0,4.0,4.0,100.0,100.0,4.0,4.0,4.0,,,,,,,,,,,,,,,,,,,,,,,,,,,,,,,,,,,,,85.257591,12.54877,3.025834,2.20331,2.360343,4.289509,3.121592,0.956282,1.222474,0.575779,26.285467,5.370484,0.864344,1.276014,0.820444,-1.0
1709135092.984982,4145.128418,4195.897461,4422.563965,4.0,4.0,4.0,100.0,,,,,,,,,,,,,,,,,,,,,,,,,,,,,,,,,,,,,,,,,151.020569,21.233725,3.314404,2.596689,3.043862,4.306479,2.575919,0.901271,1.452908,0.596437,45.838253,6.39068,0.890927,1.387577,0.925606,-1.0
1709135093.110018,4206.153809,4188.717773,4358.461426,4.0,4.0,4.0,100.0,,,,,,,,,,,,,,,,,,,,,,,,,,,,,,,,,,,,,,,,,220.494019,31.298065,3.875148,3.34779,3.842561,4.731012,2.19505,1.035396,1.686142,0.623547,67.971367,7.43761,1.174639,1.564544,1.01048,-1.0
1709135093.235053,4244.615234,4164.615234,4355.384766,4.0,4.0,4.0,100.0,,,,,,,,,,,,,,,,,,,,,,,,,,,,,,,,,,,,,,,,,274.864655,39.962746,4.784694,4.305009,4.586761,5.221175,2.149818,1.336267,1.884769,0.655898,85.132217,8.123196,1.706004,1.785268,1.060768,-1.0
1709135093.360089,4231.282227,4144.102539,4310.769043,4.0,4.0,4.0,100.0,91.666664,4.0,4.0,4.0,,,,,,,,,,,,,,,,,,,,,,,,,,,,,,,,,,,,,290.346527,44.543911,5.909384,5.195432,5.081722,5.704714,2.430637,1.815575,2.007866,0.690462,91.735466,8.17428,2.427282,1.983295,1.069661,-1.0
1709135093.360089,4231.282227,4144.102539,4310.769043,4.0,4.0,4.0,100.0,91.666664,4.0,4.0,4.0,,,,,,,,,,,,,,,,,,,,,,,,,,,,,,,,,,,,,290.346527,44.543911,5.909384,5.195432,5.081722,5.704714,2.430637,1.815575,2.007866,0.690462,91.735466,8.17428,2.427282,1.983295,1.069661,-1.0
1709135093.485125,4241.025879,4167.692383,4325.641113,4.0,4.0,4.0,100.0,,,,,,,,,,,,,,,,,,,,,,,,,,,,,,,,,,,,,,,,,266.061371,43.546661,6.901371,5.743768,5.198628,5.961751,2.866301,2.42824,2.023464,0.719805,85.290771,7.508027,3.208464,2.082948,1.039586,-1.0
1709135093.61016,4249.230957,4096.922852,4283.077148,4.0,4.0,4.0,100.0,,,,,,,,,,,,,,,,,,,,,,,,,,,,,,,,,,,,,,,,,206.949554,37.254642,7.362379,5.798957,4.939115,5.792676,3.204076,3.041226,1.915849,0.731639,68.371811,6.306715,3.858616,2.039205,0.978656,-1.0
1709135093.735196,4266.666504,4127.179688,4291.794922,4.0,4.0,4.0,100.0,,,,,,,,,,,,,,,,,,,,,,,,,,,,,,,,,,,,,,,,,136.24707,27.763996,7.06043,5.377802,4.429206,5.196437,3.270159,3.488181,1.695544,0.712314,47.144001,4.965555,4.194101,1.868046,0.897518,-1.0
1709135093.860231,4285.641113,4132.820313,4281.538574,4.0,4.0,4.0,100.0,91.666664,4.0,4.0,4.0,,,,,,,,,,,,,,,,,,,,,,,,,,,,,,,,,,,,,72.410042,18.01749,6.050838,4.63223,3.855195,4.703191,3.159186,3.619647,1.395059,0.654262,28.355551,3.841463,4.087222,1.625007,0.808923,-1.0
1709135093.860231,4285.641113,4132.820313,4281.538574,4.0,4.0,4.0,100.0,91.666664,4.0,4.0,4.0,,,,,,,,,,,,,,,,,,,,,,,,,,,,,,,,,,,,,72.410042,18.01749,6.050838,4.63223,3.855195,4.703191,3.159186,3.619647,1.395059,0.654262,28.355551,3.841463,4.087222,1.625007,0.808923,-1.0
1709135093.985267,4301.538574,4122.563965,4321.025879,4.0,4.0,4.0,100.0,,,,,,,,,,,,,,,,,,,,,,,,,,,,,,,,,,,,,,,,,30.59,10.383262,4.691464,3.781121,3.370885,5.168966,3.132616,3.415787,1.071571,0.566015,16.347219,3.116742,3.570246,1.380606,0.729177,-1.0
1709135094.110302,4342.563965,4107.179688,4303.077148,4.0,4.0,4.0,100.0,,,,,,,,,,,,,,,,,,,,,,,,,,,,,,,,,,,,,,,,,10.854117,5.755528,3.448885,3.031384,3.043907,7.025502,3.41651,3.020716,0.797651,0.472715,11.090441,2.724936,2.8425,1.197647,0.673797,-1.0
1709135094.235338,4410.256348,4154.871582,4338.974121,4.0,4.0,4.0,100.0,,,,,,,,,,,,,,,,,,,,,,,,,,,,,,,,,,,,,,,,,5.465795,3.633364,2.674512,2.517195,2.871546,10.055075,4.034163,2.64663,0.641364,0.406332,9.924666,2.47158,2.17275,1.119881,0.652196,-1.0
1709135094.360374,4396.922852,4116.410156,4327.179688,4.0,4.0,4.0,100.0,91.666664,4.0,4.0,4.0,1.0,0.44257,-2.204967,-3.729243,0.859571,1.0,0.357721,0.18187,-0.672613,1.614579,1.0,0.293801,7.564943,2.661666,17.830812,0.266519,1.0,0.407789,-0.125243,-0.338082,0.138855,1.0,0.349015,0.262463,-0.768862,1.773453,1.0,0.473331,5.247385,-40.131855,55.160766,1.0,0.414331,0.537705,0.466741,0.637905,4.534189,2.859319,2.443855,2.262357,2.823624,13.309118,4.749481,2.447052,0.631903,0.392262,9.476209,2.23768,1.765409,1.154041,0.665364,-1.0
1709135094.360374,4396.922852,4116.410156,4327.179688,4.0,4.0,4.0,100.0,91.666664,4.0,4.0,4.0,1.0,0.44257,-2.204967,-3.729243,0.859571,1.0,0.357721,0.18187,-0.672613,1.614579,1.0,0.293801,7.564943,2.661666,17.830812,0.266519,1.0,0.407789,-0.125243,-0.338082,0.138855,1.0,0.349015,0.262463,-0.768862,1.773453,1.0,0.473331,5.247385,-40.131855,55.160766,1.0,0.414331,0.537705,0.466741,0.637905,4.534189,2.859319,2.443855,2.262357,2.823624,13.309118,4.749481,2.447052,0.631903,0.392262,9.476209,2.23768,1.765409,1.154041,0.665364,-1.0
1709135094.485409,4432.307617,4138.974121,4321.025879,4.0,4.0,4.0,100.0,,,,,,,,,,,,,,,,,,,,,,,,,,,,,,,,,,,,,,,,,3.948691,2.442218,2.596388,2.21412,2.892497,15.552477,5.199731,2.440319,0.75829,0.440033,8.321754,1.991643,1.719166,1.26823,0.704955,-1.0
1709135094.610445,4404.102539,4240.0,4292.820313,4.0,4.0,4.0,100.0,,,,,,,,,,,,,,,,,,,,,,,,,,,,,,,,,,,,,,,,,3.421596,2.121007,2.843814,2.308918,3.083042,15.906563,5.081369,2.502572,0.981764,0.534309,6.870901,1.801908,1.927905,1.413796,0.753376,-1.0
1709135094.73548,4400.512695,4067.692383,4328.717773,4.0,4.0,4.0,100.0,,,,,,,,,,,,,,,,,,,,,,,,,,,,,,,,,,,,,,,,,3.019243,1.794069,2.970074,2.497764,3.362516,14.034511,4.358615,2.475575,1.262635,0.643099,5.367991,1.695732,2.196895,1.555356,0.790822,-1.0
1709135094.860516,4322.05127,4147.179688,4344.615234,4.0,4.0,4.0,100.0,91.666664,4.0,4.0,4.0,,,,,,,,,,,,,,,,,,,,,,,,,,,,,,,,,,,,,2.892258,1.497188,2.907977,2.722037,3.643141,11.28459,3.410913,2.27987,1.545408,0.732902,4.297596,1.734253,2.359064,1.672581,0.806708,-1.0
1709135094.860516,4322.05127,4147.179688,4344.615234,4.0,4.0,4.0,100.0,91.666664,4.0,4.0,4.0,,,,,,,,,,,,,,,,,,,,,,,,,,,,,,,,,,,,,2.892258,1.497188,2.907977,2.722037,3.643141,11.28459,3.410913,2.27987,1.545408,0.732902,4.297596,1.734253,2.359064,1.672581,0.806708,-1.0
1709135094.985551,4303.077148,4114.358887,4309.230957,4.0,4.0,4.0,100.0,,,,,,,,,,,,,,,,,,,,,,,,,,,,,,,,,,,,,,,,,2.878629,1.286896,2.700762,2.913757,3.828174,10.049295,2.748166,1.937942,1.766749,0.783795,3.710858,1.931221,2.324434,1.742983,0.804576,-1.0
1709135095.110587,4744.102539,4124.102539,4264.102539,4.0,4.0,4.0,100.0,,,,,,,,,,,,,,,,,,,,,,,,,,,,,,,,,,,,,,,,,3.206076,1.187857,2.459183,3.022641,3.858121,12.713263,2.719081,1.563193,1.878878,0.796522,3.575776,2.292203,2.133542,1.74651,0.79343,-1.0
1709135095.235623,4845.128418,4104.102539,4262.563965,4.0,4.0,4.0,100.0,,,,,,,,,,,,,,,,,,,,,,,,,,,,,,,,,,,,,,,,,4.707943,1.243885,2.293968,3.024557,3.730258,19.851168,3.283871,1.272113,1.856559,0.785323,3.766286,2.803581,1.895348,1.670786,0.777756,-1.0
1709135095.360658,4892.820313,4119.487305,4217.436035,4.0,4.0,4.0,100.0,91.666664,4.0,4.0,4.0,,,,,,,,,,,,,,,,,,,,,,,,,,,,,,,,,,,,,9.872251,1.466006,2.26293,2.908682,3.490582,29.8423,4.067862,1.123308,1.714727,0.770286,4.110347,3.35527,1.715085,1.525743,0.75913,-1.0
1709135095.360658,4892.820313,4119.487305,4217.436035,4.0,4.0,4.0,100.0,91.666664,4.0,4.0,4.0,,,,,,,,,,,,,,,,,,,,,,,,,,,,,,,,,,,,,9.872251,1.466006,2.26293,2.908682,3.490582,29.8423,4.067862,1.123308,1.714727,0.770286,4.110347,3.35527,1.715085,1.525743,0.75913,-1.0
1709135095.485694,4952.307617,4180.512695,4350.769043,4.0,4.0,4.0,100.0,,,,,,,,,,,,,,,,,,,,,,,,,,,,,,,,,,,,,,,,,20.639448,1.921089,2.409767,2.68836,3.204368,39.363949,4.631484,1.103776,1.4996,0.772328,4.435266,3.786003,1.632466,1.348624,0.743794,-1.0
1709135095.610729,4878.461426,4236.410156,4420.0,4.0,4.0,4.0,100.0,,,,,,,,,,,,,,,,,,,,,,,,,,,,,,,,,,,,,,,,,37.161945,2.650759,2.799896,2.397177,2.912082,44.849953,4.740461,1.151644,1.271497,0.81066,4.580408,3.973475,1.668898,1.203651,0.745467,-1.0
1709135095.735765,4974.871582,4217.94873,4546.666504,4.0,4.0,4.0,100.0,,,,,,,,,,,,,,,,,,,,,,,,,,,,,,,,,,,,,,,,,55.835022,3.565311,3.44376,2.116204,2.621606,44.616043,4.413257,1.199055,1.089801,0.89169,4.568666,3.832054,1.805901,1.165483,0.775875,-1.0
1709135095.8608,4029.230713,4140.0,4396.922852,4.0,4.0,4.0,100.0,91.666664,3.0,4.0,4.0,,,,,,,,,,,,,,,,,,,,,,,,,,,,,,,,,,,,,72.295731,4.565767,4.303007,1.94422,2.329982,39.126209,3.836798,1.217366,0.990302,1.005577,4.704543,3.496539,2.025907,1.278982,0.831552,-1.0
1709135106.86393,4670.769043,4127.179688,4278.461426,4.0,4.0,4.0,100.0,100.0,4.0,4.0,4.0,,,,,,,,,,,,,,,,,,,,,,,,,,,,,,,,,,,,,116.026329,43.921173,9.021498,1.292884,2.439007,47.638714,4.371068,2.114569,1.687041,1.639057,26.288704,21.461164,3.508368,1.841633,0.914791,1.0
1709135106.988965,4505.641113,4145.641113,4237.436035,4.0,4.0,4.0,100.0,,,,,,,,,,,,,,,,,,,,,,,,,,,,,,,,,,,,,,,,,115.290527,45.031967,9.474104,1.485043,2.361667,52.092316,4.364954,1.826322,1.741384,1.457377,26.351028,22.557556,3.976799,2.020106,0.9049,1.0
1709135107.114001,4455.897461,4118.461426,4186.153809,4.0,4.0,4.0,100.0,,,,,,,,,,,,,,,,,,,,,,,,,,,,,,,,,,,,,,,,,98.483147,40.489193,8.842351,1.734902,2.329258,57.986557,4.309135,1.513982,1.796688,1.214385,23.287483,20.924414,3.970242,2.137761,0.905054,1.0
1709135107.239036,4445.641113,4161.538574,4184.615234,4.0,4.0,4.0,100.0,,,,,,,,,,,,,,,,,,,,,,,,,,,,,,,,,,,,,,,,,74.219749,33.195263,7.391791,1.984913,2.276819,61.369678,4.314227,1.26584,1.822737,0.957183,18.749376,17.511694,3.466446,2.161031,0.912533,1.0
1709135107.364072,4461.538574,4089.743652,4172.820313,4.0,4.0,4.0,100.0,100.0,4.0,4.0,4.0,,,,,,,,,,,,,,,,,,,,,,,,,,,,,,,,,,,,,52.800434,26.924974,5.68092,2.181387,2.156493,60.031181,4.514951,1.124737,1.780038,0.743192,14.833652,13.819501,2.647482,2.07467,0.92142,1.0
1709135107.364072,4461.538574,4089.743652,4172.820313,4.0,4.0,4.0,100.0,100.0,4.0,4.0,4.0,,,,,,,,,,,,,,,,,,,,,,,,,,,,,,,,,,,,,52.800434,26.924974,5.68092,2.181387,2.156493,60.031181,4.514951,1.124737,1.780038,0.743192,14.833652,13.819501,2.647482,2.07467,0.92142,1.0
1709135107.489107,4689.743652,4171.282227,4472.307617,4.0,4.0,4.0,100.0,,,,,,,,,,,,,,,,,,,,,,,,,,,,,,,,,,,,,,,,,41.559746,24.213186,4.305243,2.290972,1.961031,53.656284,4.904936,1.075151,1.642917,0.619252,12.976285,11.107821,1.797226,1.887916,0.926703,1.0
1709135107.614143,3903.076904,4161.025879,4270.769043,4.0,4.0,4.0,100.0,,,,,,,,,,,,,,,,,,,,,,,,,,,,,,,,,,,,,,,,,40.395847,25.255499,3.667347,2.297504,1.720541,43.856228,5.28723,1.073882,1.428517,0.608631,13.243809,9.937296,1.14938,1.641223,0.93901,1.0
1709135107.739179,3836.923096,4165.641113,4237.94873,4.0,4.0,4.0,100.0,,,,,,,,,,,,,,,,,,,,,,,,,,,,,,,,,,,,,,,,,47.214153,28.249802,3.755638,2.214134,1.498043,33.497044,5.455042,1.076474,1.193118,0.706393,15.861175,10.072735,0.779105,1.392211,0.984436,1.0
1709135107.864214,3905.641113,4086.666748,4195.384766,4.0,4.0,4.0,100.0,91.666664,3.0,4.0,4.0,,,,,,,,,,,,,,,,,,,,,,,,,,,,,,,,,,,,,65.013664,30.944145,4.286633,2.094956,1.407738,25.352104,5.294468,1.086389,1.00058,0.882072,22.260124,10.94391,0.625929,1.200123,1.083584,1.0
1709135107.864214,3905.641113,4086.666748,4195.384766,4.0,4.0,4.0,100.0,91.666664,3.0,4.0,4.0,,,,,,,,,,,,,,,,,,,,,,,,,,,,,,,,,,,,,65.013664,30.944145,4.286633,2.094956,1.407738,25.352104,5.294468,1.086389,1.00058,0.882072,22.260124,10.94391,0.625929,1.200123,1.083584,1.0
1709135107.98925,3895.897461,4105.128418,4204.102539,4.0,4.0,4.0,100.0,,,,,,,,,,,,,,,,,,,,,,,,,,,,,,,,,,,,,,,,,103.982101,31.975674,4.874039,2.015101,1.582338,20.768585,4.775284,1.127146,0.892576,1.087681,34.112686,12.021602,0.566511,1.095171,1.225359,1.0
1709135108.114285,3977.435791,4101.538574,4166.153809,4.0,4.0,4.0,100.0,,,,,,,,,,,,,,,,,,,,,,,,,,,,,,,,,,,,,,,,,164.077484,31.295111,5.144836,2.036039,2.099187,19.342428,3.972458,1.207585,0.865386,1.264244,50.665302,12.988545,0.504469,1.073554,1.362409,1.0
1709135108.239321,4043.589844,4061.538574,4117.94873,4.0,4.0,4.0,100.0,,,,,,,,,,,,,,,,,,,,,,,,,,,,,,,,,,,,,,,,,237.418365,29.349779,5.004355,2.188638,2.9151,19.635302,3.079387,1.317428,0.888616,1.358353,68.591209,13.573528,0.435006,1.113204,1.433199,1.0
1709135108.364356,4113.333496,4192.307617,4154.871582,4.0,4.0,4.0,100.0,91.666664,3.0,4.0,4.0,,,,,,,,,,,,,,,,,,,,,,,,,,,,,,,,,,,,,301.07959,26.695667,4.512876,2.436736,3.855528,20.360229,2.367579,1.439125,0.928113,1.342358,81.964462,13.494834,0.398847,1.184285,1.393813,1.0
1709135108.364356,4113.333496,4192.307617,4154.871582,4.0,4.0,4.0,100.0,91.666664,3.0,4.0,4.0,,,,,,,,,,,,,,,,,,,,,,,,,,,,,,,,,,,,,301.07959,26.695667,4.512876,2.436736,3.855528,20.360229,2.367579,1.439125,0.928113,1.342358,81.964462,13.494834,0.398847,1.184285,1.393813,1.0
1709135108.489392,4192.820313,4065.128174,4201.025879,4.0,4.0,4.0,100.0,,,,,,,,,,,,,,,,,,,,,,,,,,,,,,,,,,,,,,,,,331.539093,23.668186,3.862532,2.697176,4.661419,20.373642,2.04543,1.554432,0.964103,1.225958,85.669228,12.534906,0.408811,1.248096,1.239022,1.0
1709135108.614428,4332.820313,4120.512695,4378.974121,4.0,4.0,4.0,100.0,,,,,,,,,,,,,,,,,,,,,,,,,,,,,,,,,,,,,,,,,316.648743,20.354568,3.270211,2.878613,5.098014,19.851141,2.230009,1.65359,0.986634,1.051859,78.089111,10.698963,0.448384,1.282563,1.010988,1.0
1709135108.739463,4277.94873,4138.461426,4317.436035,4.0,4.0,4.0,100.0,,,,,,,,,,,,,,,,,,,,,,,,,,,,,,,,,,,,,,,,,258.38559,17.049246,2.860626,2.940678,5.087245,20.118879,2.857583,1.730986,0.985057,0.878083,61.002876,8.36379,0.499847,1.28354,0.777539,1.0
1709135108.864499,4287.179688,4124.615234,4290.256348,4.0,4.0,4.0,100.0,91.666664,3.0,4.0,4.0,,,,,,,,,,,,,,,,,,,,,,,,,,,,,,,,,,,,,180.697983,14.557205,2.781567,2.960796,4.783874,22.793161,3.74095,1.804533,0.959083,0.758794,40.773769,6.017866,0.561407,1.271548,0.602598,1.0
1709135111.36521,4230.769043,4177.436035,4342.563965,4.0,4.0,4.0,100.0,66.666664,1.0,4.0,4.0,,,,,,,,,,,,,,,,,,,,,,,,,,,,,,,,,,,,,430.559998,107.424446,28.891449,4.298901,16.855688,20.489254,4.063459,5.126718,1.951557,0.769555,72.271942,6.376652,2.001987,1.647027,1.500321,-1.0
1709135111.490245,4207.179688,4165.641113,4312.820313,4.0,4.0,4.0,100.0,,,,,,,,,,,,,,,,,,,,,,,,,,,,,,,,,,,,,,,,,401.566956,84.114113,22.232948,4.607679,14.755032,22.926456,3.944259,3.942352,2.141728,0.809718,78.000153,7.118942,1.494825,1.521742,1.409269,-1.0
1709135111.615281,4294.358887,4122.05127,4294.871582,4.0,4.0,4.0,100.0,,,,,,,,,,,,,,,,,,,,,,,,,,,,,,,,,,,,,,,,,388.365417,60.343338,15.625203,5.138988,12.636145,24.810801,3.65098,3.19656,2.33884,0.833788,88.207405,8.324174,1.204201,1.406697,1.364322,0.0
1709135111.740317,4688.717773,4142.05127,4366.666504,4.0,4.0,4.0,100.0,,,,,,,,,,,,,,,,,,,,,,,,,,,,,,,,,,,,,,,,,403.078461,42.495186,10.629781,5.882425,11.264298,26.5138,3.271544,2.951474,2.48443,0.829909,100.522514,9.668059,1.179751,1.3356,1.398754,0.0
1709135111.865352,4466.666504,4169.230957,4320.512695,4.0,4.0,4.0,100.0,75.0,1.0,4.0,4.0,,,,,,,,,,,,,,,,,,,,,,,,,,,,,,,,,,,,,427.433167,31.940071,7.673736,6.674488,10.741657,28.313824,2.911564,3.036436,2.511126,0.791004,109.027168,10.435377,1.344567,1.308493,1.485734,0.0
1709135111.865352,4466.666504,4169.230957,4320.512695,4.0,4.0,4.0,100.0,75.0,1.0,4.0,4.0,,,,,,,,,,,,,,,,,,,,,,,,,,,,,,,,,,,,,427.433167,31.940071,7.673736,6.674488,10.741657,28.313824,2.911564,3.036436,2.511126,0.791004,109.027168,10.435377,1.344567,1.308493,1.485734,0.0
1709135111.990388,4538.461426,4154.358887,4295.384766,4.0,4.0,4.0,100.0,,,,,,,,,,,,,,,,,,,,,,,,,,,,,,,,,,,,,,,,,435.17926,25.662634,6.102293,7.272758,10.565514,30.071753,2.688731,3.212845,2.386357,0.720114,108.212982,10.013264,1.592222,1.305313,1.556122,0.0
1709135112.115423,4664.615234,4167.692383,4258.461426,4.0,4.0,4.0,100.0,,,,,,,,,,,,,,,,,,,,,,,,,,,,,,,,,,,,,,,,,408.302094,20.498993,5.011451,7.510567,10.052709,31.107964,2.703768,3.274683,2.132193,0.632254,96.929497,8.623303,1.838583,1.315336,1.542448,0.0
1709135112.240459,4598.974121,4172.307617,4254.871582,4.0,4.0,4.0,100.0,,,,,,,,,,,,,,,,,,,,,,,,,,,,,,,,,,,,,,,,,349.108521,15.699476,4.056972,7.378571,8.862705,30.174471,2.933419,3.074709,1.818446,0.551932,79.682671,7.055317,2.054577,1.344442,1.422519,0.0
1709135112.365494,4565.641113,4175.384766,4277.436035,4.0,4.0,4.0,100.0,91.666664,3.0,4.0,4.0,,,,,,,,,,,,,,,,,,,,,,,,,,,,,,,,,,,,,284.847656,13.850986,3.481668,6.977044,7.208158,27.1728,3.268644,2.611198,1.528474,0.501204,63.967327,6.16925,2.25437,1.3958,1.227606,0.0
1709135112.365494,4565.641113,4175.384766,4277.436035,4.0,4.0,4.0,100.0,91.666664,3.0,4.0,4.0,,,,,,,,,,,,,,,,,,,,,,,,,,,,,,,,,,,,,284.847656,13.850986,3.481668,6.977044,7.208158,27.1728,3.268644,2.611198,1.528474,0.501204,63.967327,6.16925,2.25437,1.3958,1.227606,0.0
1709135112.49053,4482.05127,4168.205078,4263.077148,4.0,4.0,4.0,100.0,,,,,,,,,,,,,,,,,,,,,,,,,,,,,,,,,,,,,,,,,239.491592,15.681411,3.484511,6.418545,5.542172,22.111914,3.560036,2.006884,1.331123,0.489674,52.634903,6.267706,2.41981,1.454404,1.016518,0.0
1709135112.615566,4419.487305,4209.743652,4208.717773,4.0,4.0,4.0,100.0,,,,,,,,,,,,,,,,,,,,,,,,,,,,,,,,,,,,,,,,,212.644623,19.875492,4.021052,5.766928,4.22439,16.33317,3.657802,1.442105,1.24768,0.510204,48.125847,7.057282,2.520876,1.491946,0.839926,0.0
1709135112.740601,4295.897461,4100.512695,4196.410156,4.0,4.0,4.0,100.0,,,,,,,,,,,,,,,,,,,,,,,,,,,,,,,,,,,,,,,,,204.414993,23.770363,4.840632,5.058621,3.397061,11.296891,3.516596,1.050682,1.241379,0.543477,46.9147,7.832211,2.531815,1.471537,0.719281,0.0
1709135112.865637,4302.563965,4158.461426,4367.692383,4.0,4.0,4.0,100.0,91.666664,3.0,4.0,4.0,,,,,,,,,,,,,,,,,,,,,,,,,,,,,,,,,,,,,191.1772,25.132299,5.601245,4.316809,3.003131,7.829429,3.231682,0.866823,1.245779,0.565394,44.895023,7.979855,2.448966,1.364341,0.643383,0.0
1709135112.865637,4302.563965,4158.461426,4367.692383,4.0,4.0,4.0,100.0,91.666664,3.0,4.0,4.0,,,,,,,,,,,,,,,,,,,,,,,,,,,,,,,,,,,,,191.1772,25.132299,5.601245,4.316809,3.003131,7.829429,3.231682,0.866823,1.245779,0.565394,44.895023,7.979855,2.448966,1.364341,0.643383,0.0
1709135112.990672,4088.205078,4111.794922,4243.077148,4.0,4.0,4.0,100.0,,,,,,,,,,,,,,,,,,,,,,,,,,,,,,,,,,,,,,,,,166.75531,23.302496,6.147834,3.617154,2.908109,6.198986,2.985725,0.829134,1.213405,0.562958,39.560204,7.27529,2.307536,1.176506,0.595923,0.0
1709135113.115708,4140.0,4129.230957,4263.077148,4.0,4.0,4.0,100.0,,,,,,,,,,,,,,,,,,,,,,,,,,,,,,,,,,,,,,,,,141.363144,20.656,6.651477,3.103715,3.021808,6.556759,2.936723,0.848479,1.148651,0.540855,34.414207,6.300087,2.205196,0.968654,0.588219,0.0
1709135113.240743,4205.128418,4126.153809,4271.794922,4.0,4.0,4.0,100.0,,,,,,,,,,,,,,,,,,,,,,,,,,,,,,,,,,,,,,,,,136.856476,19.918724,7.29207,2.887134,3.285084,8.614185,3.12545,0.878526,1.091264,0.517323,34.524872,5.755445,2.233549,0.819638,0.653016,0.0
1709135113.365779,4159.487305,4142.05127,4277.94873,4.0,4.0,4.0,100.0,100.0,4.0,4.0,4.0,,,,,,,,,,,,,,,,,,,,,,,,,,,,,,,,,,,,,165.203384,22.891617,8.08409,2.985819,3.62916,11.802426,3.444947,0.895492,1.067085,0.510675,43.53529,6.204878,2.427961,0.788821,0.810632,0.0
1709135113.365779,4159.487305,4142.05127,4277.94873,4.0,4.0,4.0,100.0,100.0,4.0,4.0,4.0,,,,,,,,,,,,,,,,,,,,,,,,,,,,,,,,,,,,,165.203384,22.891617,8.08409,2.985819,3.62916,11.802426,3.444947,0.895492,1.067085,0.510675,43.53529,6.204878,2.427961,0.788821,0.810632,0.0
1709135113.490815,4211.282227,4124.615234,4280.0,4.0,4.0,4.0,100.0,,,,,,,,,,,,,,,,,,,,,,,,,,,,,,,,,,,,,,,,,221.283325,29.092976,8.804077,3.263933,3.986519,15.069212,3.688041,0.878386,1.069969,0.526744,59.946789,7.629911,2.729566,0.874563,1.042945,0.0
1709135113.61585,4231.282227,4124.615234,4276.922852,4.0,4.0,4.0,100.0,,,,,,,,,,,,,,,,,,,,,,,,,,,,,,,,,,,,,,,,,283.369476,35.773956,9.062926,3.508665,4.305753,17.31628,3.672565,0.837474,1.066948,0.555485,78.07563,9.416033,2.990061,1.013439,1.288088,0.0
1709135113.740886,4269.743652,4112.307617,4275.897461,4.0,4.0,4.0,100.0,,,,,,,,,,,,,,,,,,,,,,,,,,,,,,,,,,,,,,,,,322.687286,39.449543,8.549697,3.567494,4.578002,17.878345,3.35835,0.794287,1.023552,0.578603,90.241913,10.717589,3.053589,1.116822,1.463626,0.0
1709135113.865921,4300.0,4162.563965,4283.589844,4.0,4.0,4.0,100.0,100.0,4.0,4.0,4.0,,,,,,,,,,,,,,,,,,,,,,,,,,,,,,,,,,,,,322.092896,38.096813,7.266881,3.416975,4.843122,16.654139,2.816554,0.74756,0.925139,0.581328,91.014259,10.916449,2.845496,1.119851,1.507391,0.0
1709135113.865921,4300.0,4162.563965,4283.589844,4.0,4.0,4.0,100.0,100.0,4.0,4.0,4.0,,,,,,,,,,,,,,,,,,,,,,,,,,,,,,,,,,,,,322.092896,38.096813,7.266881,3.416975,4.843122,16.654139,2.816554,0.74756,0.925139,0.581328,91.014259,10.916449,2.845496,1.119851,1.507391,0.0
1709135113.990957,4345.128418,4115.384766,4285.128418,4.0,4.0,4.0,100.0,,,,,,,,,,,,,,,,,,,,,,,,,,,,,,,,,,,,,,,,,277.497131,31.762461,5.493279,3.143423,5.148628,14.086828,2.192323,0.698243,0.780089,0.561754,79.279968,9.774331,2.403881,1.011696,1.408547,0.0
1709135114.115992,4274.871582,4128.717773,4220.0,4.0,4.0,4.0,100.0,,,,,,,,,,,,,,,,,,,,,,,,,,,,,,,,,,,,,,,,,204.373779,22.438892,3.63376,2.851126,5.49977,10.912992,1.649633,0.640678,0.614703,0.532622,58.994038,7.68979,1.885116,0.82908,1.211961,0.0
1709135114.241028,4420.512695,4138.974121,4262.563965,4.0,4.0,4.0,100.0,,,,,,,,,,,,,,,,,,,,,,,,,,,,,,,,,,,,,,,,,124.699203,13.223673,2.133906,2.622871,5.829187,8.080569,1.298761,0.576127,0.466149,0.513657,36.950508,5.45744,1.460115,0.639317,0.994085,0.0
1709135114.366063,4390.256348,4144.615234,4291.282227,4.0,4.0,4.0,100.0,100.0,4.0,4.0,4.0,1.0,0.410905,-1.889269,-3.723043,0.838757,1.0,0.411036,0.272035,-0.672368,1.609696,1.0,0.18091,5.490847,2.653358,17.792788,0.243394,1.0,0.340135,-0.155982,-0.338086,0.138542,1.0,0.336205,0.199778,-0.770671,1.770913,1.0,0.477681,5.971932,-40.013541,54.967017,1.0,0.373311,0.535483,0.466971,0.637705,60.32328,6.455385,1.218742,2.458733,6.012159,6.294462,1.187149,0.523827,0.36403,0.51784,19.045357,3.679177,1.243799,0.506077,0.823697,0.0
1709135114.366063,4390.256348,4144.615234,4291.282227,4.0,4.0,4.0,100.0,100.0,4.0,4.0,4.0,1.0,0.410905,-1.889269,-3.723043,0.838757,1.0,0.411036,0.272035,-0.672368,1.609696,1.0,0.18091,5.490847,2.653358,17.792788,0.243394,1.0,0.340135,-0.155982,-0.338086,0.138542,1.0,0.336205,0.199778,-0.770671,1.770913,1.0,0.477681,5.971932,-40.013541,54.967017,1.0,0.373311,0.535483,0.466971,0.637705,60.32328,6.455385,1.218742,2.458733,6.012159,6.294462,1.187149,0.523827,0.36403,0.51784,19.045357,3.679177,1.243799,0.506077,0.823697,0.0
1709135114.491099,4452.307617,4149.230957,4276.410156,4.0,4.0,4.0,100.0,,,,,,,,,,,,,,,,,,,,,,,,,,,,,,,,,,,,,,,,,22.445972,2.856203,0.843194,2.305785,5.942091,5.836755,1.302302,0.506995,0.312953,0.545308,8.246898,2.643365,1.245961,0.455944,0.731705,0.0
1709135114.616135,4378.461426,4122.563965,4233.333496,4.0,4.0,4.0,100.0,,,,,,,,,,,,,,,,,,,,,,,,,,,,,,,,,,,,,,,,,8.263762,1.653417,0.781704,2.100774,5.596266,6.4201,1.588923,0.551353,0.302806,0.585637,3.903352,2.241344,1.369063,0.476207,0.706908,0.0
1709135114.74117,4406.666504,4123.589844,4325.641113,4.0,4.0,4.0,100.0,,,,,,,,,,,,,,,,,,,,,,,,,,,,,,,,,,,,,,,,,7.962291,1.547279,0.808506,1.806381,5.052675,7.464561,1.946304,0.646848,0.329518,0.623099,3.241181,2.114713,1.470274,0.531909,0.717395,0.0
1709135114.866206,4355.897461,4133.846191,4366.666504,4.0,4.0,4.0,100.0,100.0,4.0,4.0,4.0,,,,,,,,,,,,,,,,,,,,,,,,,,,,,,,,,,,,,12.800346,1.701524,0.855269,1.476971,4.49356,8.28622,2.244035,0.759796,0.394201,0.647563,3.898247,1.986938,1.46982,0.589505,0.740865,0.0
1709135114.866206,4355.897461,4133.846191,4366.666504,4.0,4.0,4.0,100.0,100.0,4.0,4.0,4.0,,,,,,,,,,,,,,,,,,,,,,,,,,,,,,,,,,,,,12.800346,1.701524,0.855269,1.476971,4.49356,8.28622,2.244035,0.759796,0.394201,0.647563,3.898247,1.986938,1.46982,0.589505,0.740865,0.0
1709135114.991241,4215.384766,4076.410156,4242.05127,4.0,4.0,4.0,100.0,,,,,,,,,,,,,,,,,,,,,,,,,,,,,,,,,,,,,,,,,22.929274,2.176498,0.960586,1.226315,4.129515,8.395727,2.396963,0.852331,0.496508,0.662424,5.85458,1.908447,1.38203,0.631304,0.782826,0.0
1709135115.116277,4156.922852,4126.153809,4198.974121,4.0,4.0,4.0,100.0,,,,,,,,,,,,,,,,,,,,,,,,,,,,,,,,,,,,,,,,,45.714916,3.619335,1.21251,1.195084,4.085135,7.666986,2.384144,0.894839,0.623795,0.680573,11.203532,2.156889,1.288475,0.65311,0.866657,0.0
1709135115.241312,4235.897461,4063.589844,4221.025879,4.0,4.0,4.0,100.0,,,,,,,,,,,,,,,,,,,,,,,,,,,,,,,,,,,,,,,,,91.899254,6.757349,1.692378,1.481508,4.336927,6.283989,2.279704,0.887813,0.75276,0.713405,22.318552,3.0092,1.297203,0.661912,1.008383,0.0
1709135115.366348,4229.743652,4095.897461,4225.641113,4.0,4.0,4.0,100.0,100.0,4.0,4.0,4.0,,,,,,,,,,,,,,,,,,,,,,,,,,,,,,,,,,,,,161.96875,11.754865,2.413476,2.067869,4.746356,4.655643,2.190426,0.87349,0.854891,0.760312,39.664402,4.471696,1.47307,0.666847,1.198636,0.0
1709135115.366348,4229.743652,4095.897461,4225.641113,4.0,4.0,4.0,100.0,100.0,4.0,4.0,4.0,,,,,,,,,,,,,,,,,,,,,,,,,,,,,,,,,,,,,161.96875,11.754865,2.413476,2.067869,4.746356,4.655643,2.190426,0.87349,0.854891,0.760312,39.664402,4.471696,1.47307,0.666847,1.198636,0.0
1709135115.491383,4253.846191,4098.461426,4221.025879,4.0,4.0,4.0,100.0,,,,,,,,,,,,,,,,,,,,,,,,,,,,,,,,,,,,,,,,,244.197174,17.797733,3.315034,2.821776,5.136101,3.185611,2.177159,0.921146,0.906058,0.804812,60.045193,6.206305,1.809764,0.673707,1.39709,0.0
1709135115.616419,4274.358887,4118.461426,4214.358887,4.0,4.0,4.0,100.0,,,,,,,,,,,,,,,,,,,,,,,,,,,,,,,,,,,,,,,,,316.228729,23.25758,4.246403,3.589871,5.388969,2.241895,2.236124,1.075967,0.895375,0.821842,78.138611,7.662977,2.228885,0.686028,1.548374,0.0
1709135115.741455,4308.717773,4103.589844,4229.743652,4.0,4.0,4.0,100.0,,,,,,,,,,,,,,,,,,,,,,,,,,,,,,,,,,,,,,,,,353.852631,26.396648,4.991776,4.237897,5.505205,1.982241,2.284551,1.318087,0.828191,0.791317,87.585709,8.337125,2.601727,0.707273,1.608854,0.0
1709135115.86649,4304.102539,4118.974121,4247.692383,4.0,4.0,4.0,100.0,91.666664,3.0,4.0,4.0,,,,,,,,,,,,,,,,,,,,,,,,,,,,,,,,,,,,,343.508789,26.215757,5.360512,4.684836,5.599735,2.401518,2.242923,1.574193,0.721641,0.709714,85.385986,8.002364,2.813141,0.734545,1.564417,0.0
1709135115.86649,4304.102539,4118.974121,4247.692383,4.0,4.0,4.0,100.0,91.666664,3.0,4.0,4.0,,,,,,,,,,,,,,,,,,,,,,,,,,,,,,,,,,,,,343.508789,26.215757,5.360512,4.684836,5.599735,2.401518,2.242923,1.574193,0.721641,0.709714,85.385986,8.002364,2.813141,0.734545,1.564417,0.0
1709135115.991526,4342.563965,4143.077148,4289.230957,4.0,4.0,4.0,100.0,,,,,,,,,,,,,,,,,,,,,,,,,,,,,,,,,,,,,,,,,287.836609,22.867798,5.251206,4.954944,5.865682,3.396308,2.114123,1.754209,0.609281,0.59435,72.154465,6.834479,2.793357,0.766178,1.442948,0.0
1709135116.116561,4363.589844,4170.769043,4315.384766,4.0,4.0,4.0,100.0,,,,,,,,,,,,,,,,,,,,,,,,,,,,,,,,,,,,,,,,,205.422897,17.545795,4.698339,5.125664,6.469879,4.711847,1.99027,1.801297,0.525741,0.476776,52.588215,5.280716,2.562885,0.805443,1.301134,0.0
1709135116.241597,4410.256348,4155.384766,4318.974121,4.0,4.0,4.0,100.0,,,,,,,,,,,,,,,,,,,,,,,,,,,,,,,,,,,,,,,,,121.758202,11.890783,3.873085,5.283739,7.420719,6.055099,1.978787,1.717173,0.494373,0.389739,32.844307,3.872143,2.213359,0.85074,1.192369,0.0
1709135116.366632,4337.94873,4160.512695,4251.282227,4.0,4.0,4.0,100.0,91.666664,3.0,4.0,4.0,,,,,,,,,,,,,,,,,,,,,,,,,,,,,,,,,,,,,57.464817,7.34416,2.992959,5.508904,8.499061,7.135923,2.116278,1.559825,0.515234,0.355635,17.537558,3.023793,1.846362,0.896949,1.139166,0.0
1709135116.366632,4337.94873,4160.512695,4251.282227,4.0,4.0,4.0,100.0,91.666664,3.0,4.0,4.0,,,,,,,,,,,,,,,,,,,,,,,,,,,,,,,,,,,,,57.464817,7.34416,2.992959,5.508904,8.499061,7.135923,2.116278,1.559825,0.515234,0.355635,17.537558,3.023793,1.846362,0.896949,1.139166,0.0
1709135116.491668,4416.410156,4180.512695,4303.589844,4.0,4.0,4.0,100.0,,,,,,,,,,,,,,,,,,,,,,,,,,,,,,,,,,,,,,,,,20.346504,4.517334,2.242388,5.880833,9.337676,7.688721,2.324485,1.3836,0.567484,0.380261,8.485219,2.84606,1.533925,0.939758,1.13038,0.0
1709135116.616704,4685.641113,4249.743652,4550.256348,4.0,4.0,4.0,100.0,,,,,,,,,,,,,,,,,,,,,,,,,,,,,,,,,,,,,,,,,6.091023,3.203489,1.733022,6.469364,9.6228,7.704591,2.438801,1.230786,0.620208,0.452776,4.879486,3.11236,1.29552,0.977023,1.134565,0.0
1709135116.741739,4455.384766,4198.974121,4330.256348,4.0,4.0,4.0,100.0,,,,,,,,,,,,,,,,,,,,,,,,,,,,,,,,,,,,,,,,,4.053731,2.846351,1.669434,7.313524,9.258265,7.24538,2.340762,1.116514,0.646016,0.556719,4.331477,3.585038,1.170468,1.011243,1.11859,0.0
1709135116.866775,4396.410156,4184.102539,4305.128418,4.0,4.0,4.0,100.0,91.666664,3.0,4.0,4.0,,,,,,,,,,,,,,,,,,,,,,,,,,,,,,,,,,,,,9.864352,4.103594,2.489434,8.398845,8.4007,6.956056,2.041785,1.039729,0.632751,0.684275,6.295409,4.556939,1.222325,1.039243,1.065909,0.0
1709135116.866775,4396.410156,4184.102539,4305.128418,4.0,4.0,4.0,100.0,91.666664,3.0,4.0,4.0,,,,,,,,,,,,,,,,,,,,,,,,,,,,,,,,,,,,,9.864352,4.103594,2.489434,8.398845,8.4007,6.956056,2.041785,1.039729,0.632751,0.684275,6.295409,4.556939,1.222325,1.039243,1.065909,0.0
1709135116.99181,4356.922852,4181.025879,4287.179688,4.0,4.0,4.0,100.0,,,,,,,,,,,,,,,,,,,,,,,,,,,,,,,,,,,,,,,,,30.135456,8.278295,4.623382,9.541192,7.379189,6.781694,1.672073,0.993726,0.588755,0.835427,13.455552,6.486419,1.50512,1.058438,0.982751,0.0
1709135117.116846,4396.410156,4204.615234,4264.615234,4.0,4.0,4.0,100.0,,,,,,,,,,,,,,,,,,,,,,,,,,,,,,,,,,,,,,,,,68.85022,15.956226,8.075667,10.422387,6.55698,7.020336,1.417441,0.965125,0.53659,1.006692,27.466274,9.488306,1.975768,1.072214,0.892951,0.0
1709135117.241881,4310.256348,4112.307617,4216.410156,4.0,4.0,4.0,100.0,,,,,,,,,,,,,,,,,,,,,,,,,,,,,,,,,,,,,,,,,123.081863,26.084387,12.274021,10.761336,6.155047,7.23208,1.405969,0.933553,0.496654,1.184912,47.282135,13.065726,2.501815,1.085411,0.832506,0.0
1709135117.366917,4356.922852,4150.769043,4262.563965,4.0,4.0,4.0,100.0,91.666664,3.0,4.0,4.0,,,,,,,,,,,,,,,,,,,,,,,,,,,,,,,,,,,,,179.499542,36.070686,16.072521,10.448771,6.145943,7.462827,1.643709,0.87932,0.475903,1.348169,68.152336,16.228275,2.915657,1.101705,0.834561,0.0
1709135117.366917,4356.922852,4150.769043,4262.563965,4.0,4.0,4.0,100.0,91.666664,3.0,4.0,4.0,,,,,,,,,,,,,,,,,,,,,,,,,,,,,,,,,,,,,179.499542,36.070686,16.072521,10.448771,6.145943,7.462827,1.643709,0.87932,0.475903,1.348169,68.152336,16.228275,2.915657,1.101705,0.834561,0.0
1709135117.491953,4550.769043,4196.410156,4450.256348,4.0,4.0,4.0,100.0,,,,,,,,,,,,,,,,,,,,,,,,,,,,,,,,,,,,,,,,,221.1548,42.99197,18.289303,9.576197,6.304427,7.685882,2.014777,0.800341,0.463814,1.47468,83.649979,17.932934,3.102742,1.127372,0.913088,1.0
1709135117.616988,4378.461426,4198.974121,4367.179688,4.0,4.0,4.0,100.0,,,,,,,,,,,,,,,,,,,,,,,,,,,,,,,,,,,,,,,,,233.275192,44.910206,18.191353,8.374113,6.361376,8.331439,2.364983,0.705236,0.443882,1.553988,87.875,17.608452,3.01151,1.157805,1.064807,1.0
1709135117.742024,4368.205078,4161.025879,4295.897461,4.0,4.0,4.0,100.0,,,,,,,,,,,,,,,,,,,,,,,,,,,,,,,,,,,,,,,,,212.283264,41.478977,15.90277,7.10857,6.167229,9.572924,2.586251,0.617264,0.412354,1.589947,79.304504,15.330341,2.680205,1.178309,1.279739,1.0
1709135117.867059,4501.025879,4187.692383,4294.358887,4.0,4.0,4.0,100.0,100.0,4.0,4.0,4.0,,,,,,,,,,,,,,,,,,,,,,,,,,,,,,,,,,,,,170.223984,34.479836,12.273535,5.974608,5.74097,11.502222,2.658554,0.588211,0.386707,1.593941,62.56699,11.937697,2.23345,1.173237,1.534516,1.0
1709135117.867059,4501.025879,4187.692383,4294.358887,4.0,4.0,4.0,100.0,100.0,4.0,4.0,4.0,,,,,,,,,,,,,,,,,,,,,,,,,,,,,,,,,,,,,170.223984,34.479836,12.273535,5.974608,5.74097,11.502222,2.658554,0.588211,0.386707,1.593941,62.56699,11.937697,2.23345,1.173237,1.534516,1.0
1709135117.992095,4855.384766,4210.256348,4568.717773,4.0,4.0,4.0,100.0,,,,,,,,,,,,,,,,,,,,,,,,,,,,,,,,,,,,,,,,,125.94352,26.88916,8.569015,5.023731,5.183012,13.434115,2.601541,0.68455,0.398558,1.575264,44.628731,8.690297,1.839642,1.141009,1.788555,1.0
1709135118.11713,4562.563965,4189.743652,4402.563965,4.0,4.0,4.0,100.0,,,,,,,,,,,,,,,,,,,,,,,,,,,,,,,,,,,,,,,,,95.865715,21.390331,5.984478,4.247917,4.603856,14.705045,2.46354,0.951741,0.468127,1.53495,31.864241,6.565311,1.623633,1.090878,1.989767,1.0
1709135118.242166,4437.436035,4164.102539,4332.307617,4.0,4.0,4.0,100.0,,,,,,,,,,,,,,,,,,,,,,,,,,,,,,,,,,,,,,,,,87.623055,19.036921,5.115285,3.635638,4.105244,14.540677,2.288887,1.411627,0.598562,1.466246,27.796885,5.669292,1.610447,1.04079,2.096364,1.0
1709135118.367201,4447.179688,4212.820313,4310.256348,4.0,4.0,4.0,100.0,91.666664,3.0,4.0,4.0,,,,,,,,,,,,,,,,,,,,,,,,,,,,,,,,,,,,,104.756844,20.348898,5.884795,3.233391,3.769975,12.988272,2.101589,2.036577,0.763456,1.358852,34.301346,5.798833,1.751915,1.009788,2.093394,1.0
1709135118.367201,4447.179688,4212.820313,4310.256348,4.0,4.0,4.0,100.0,91.666664,3.0,4.0,4.0,,,,,,,,,,,,,,,,,,,,,,,,,,,,,,,,,,,,,104.756844,20.348898,5.884795,3.233391,3.769975,12.988272,2.101589,2.036577,0.763456,1.358852,34.301346,5.798833,1.751915,1.009788,2.093394,1.0
1709135118.492237,4316.922852,4147.179688,4312.820313,4.0,4.0,4.0,100.0,,,,,,,,,,,,,,,,,,,,,,,,,,,,,,,,,,,,,,,,,138.775162,24.94915,7.694708,3.062984,3.658291,10.550679,1.902101,2.733008,0.912908,1.212991,48.220844,6.596578,1.964479,1.004452,1.995996,1.0
1709135118.617273,4348.717773,4151.794922,4311.282227,4.0,4.0,4.0,100.0,,,,,,,,,,,,,,,,,,,,,,,,,,,,,,,,,,,,,,,,,175.815613,31.645941,9.724201,3.073016,3.812261,8.145091,1.702488,3.384155,1.014956,1.053315,64.018661,7.784778,2.179812,1.013601,1.843504,1.0
1709135118.742308,4342.05127,4181.538574,4311.282227,4.0,4.0,4.0,100.0,,,,,,,,,,,,,,,,,,,,,,,,,,,,,,,,,,,,,,,,,205.372589,38.202728,11.282635,3.1731,4.242102,6.57069,1.55075,3.853465,1.072108,0.923244,77.312294,8.958957,2.333923,1.029631,1.687803,1.0
1709135118.867344,4314.358887,4161.538574,4290.769043,4.0,4.0,4.0,100.0,100.0,4.0,4.0,4.0,,,,,,,,,,,,,,,,,,,,,,,,,,,,,,,,,,,,,220.218567,42.244843,11.902055,3.282161,4.924458,6.038649,1.484431,4.02131,1.111616,0.857667,84.964661,9.763903,2.38136,1.053538,1.571813,1.0
1709135118.867344,4314.358887,4161.538574,4290.769043,4.0,4.0,4.0,100.0,100.0,4.0,4.0,4.0,,,,,,,,,,,,,,,,,,,,,,,,,,,,,,,,,,,,,220.218567,42.244843,11.902055,3.282161,4.924458,6.038649,1.484431,4.02131,1.111616,0.857667,84.964661,9.763903,2.38136,1.053538,1.571813,1.0
1709135118.992379,4222.563965,4126.153809,4192.307617,4.0,4.0,4.0,100.0,,,,,,,,,,,,,,,,,,,,,,,,,,,,,,,,,,,,,,,,,213.536652,42.05629,11.454575,3.394142,5.770651,6.453505,1.51031,3.832879,1.15919,0.865194,83.790451,9.929774,2.314019,1.094424,1.512041,1.0
1709135119.117415,4290.769043,4129.743652,4233.846191,4.0,4.0,4.0,100.0,,,,,,,,,,,,,,,,,,,,,,,,,,,,,,,,,,,,,,,,,184.948868,37.187302,10.064953,3.507262,6.598399,7.332032,1.631354,3.344651,1.219555,0.926454,73.337181,9.32366,2.161232,1.15808,1.490099,1.0
1709135119.24245,4600.0,4160.512695,4455.384766,4.0,4.0,4.0,100.0,,,,,,,,,,,,,,,,,,,,,,,,,,,,,,,,,,,,,,,,,139.728195,28.789207,8.123132,3.58673,7.195405,8.180974,1.784504,2.694836,1.270882,1.00482,55.754864,7.994115,1.990408,1.236215,1.461818,1.0
1709135119.367486,4314.871582,4107.179688,4262.05127,4.0,4.0,4.0,100.0,91.666664,3.0,4.0,4.0,,,,,,,,,,,,,,,,,,,,,,,,,,,,,,,,,,,,,90.472206,19.331669,6.305331,3.590216,7.419367,8.441298,1.850227,2.041096,1.27529,1.06559,36.214279,6.309981,1.908008,1.309442,1.390495,1.0
1709135119.367486,4314.871582,4107.179688,4262.05127,4.0,4.0,4.0,100.0,91.666664,3.0,4.0,4.0,,,,,,,,,,,,,,,,,,,,,,,,,,,,,,,,,,,,,90.472206,19.331669,6.305331,3.590216,7.419367,8.441298,1.850227,2.041096,1.27529,1.06559,36.214279,6.309981,1.908008,1.309442,1.390495,1.0
1709135119.492521,4228.717773,4162.05127,4234.358887,4.0,4.0,4.0,100.0,,,,,,,,,,,,,,,,,,,,,,,,,,,,,,,,,,,,,,,,,54.205029,12.735785,5.432546,3.496362,7.254434,7.992066,1.797254,1.519011,1.205602,1.090386,21.62005,4.985026,2.015033,1.354437,1.272607,1.0
1709135119.617557,4191.794922,4115.897461,4189.743652,4.0,4.0,4.0,100.0,,,,,,,,,,,,,,,,,,,,,,,,,,,,,,,,,,,,,,,,,45.26899,11.795653,6.018114,3.353044,6.798916,7.076558,1.667035,1.2036,1.062374,1.076096,17.137171,4.540345,2.355678,1.352165,1.128596,1.0
1709135119.742593,4223.077148,4085.641113,4160.0,4.0,4.0,4.0,100.0,,,,,,,,,,,,,,,,,,,,,,,,,,,,,,,,,,,,,,,,,68.211281,16.930145,7.896393,3.236248,6.219301,6.287457,1.57296,1.093189,0.875478,1.032048,24.238523,5.182082,2.872213,1.298625,0.983337,1.0
1709135119.867628,4148.717773,4098.461426,4111.282227,4.0,4.0,4.0,100.0,91.666664,3.0,4.0,4.0,,,,,,,,,,,,,,,,,,,,,,,,,,,,,,,,,,,,,113.800865,25.584589,10.232193,3.20263,5.687513,5.944808,1.661034,1.121842,0.690718,0.973565,39.736538,6.580645,3.414431,1.221968,0.858039,1.0
1709135119.867628,4148.717773,4098.461426,4111.282227,4.0,4.0,4.0,100.0,91.666664,3.0,4.0,4.0,,,,,,,,,,,,,,,,,,,,,,,,,,,,,,,,,,,,,113.800865,25.584589,10.232193,3.20263,5.687513,5.944808,1.661034,1.121842,0.690718,0.973565,39.736538,6.580645,3.414431,1.221968,0.858039,1.0
1709135119.992664,4112.820313,4100.0,4102.05127,4.0,4.0,4.0,100.0,,,,,,,,,,,,,,,,,,,,,,,,,,,,,,,,,,,,,,,,,163.660812,33.529102,11.967048,3.260714,5.327518,6.298048,2.038253,1.220773,0.546863,0.914553,57.099094,7.941689,3.805097,1.160193,0.765006,1.0
1709135120.117699,4029.230713,4102.563965,4055.897461,4.0,4.0,4.0,100.0,,,,,,,,,,,,,,,,,,,,,,,,,,,,,,,,,,,,,,,,,196.76387,37.597908,12.353888,3.374564,5.228657,7.086601,2.708775,1.354822,0.458299,0.857509,69.143143,8.57088,3.914478,1.141108,0.700936,1.0
1709135120.242735,3990.256348,4131.282227,4136.922852,4.0,4.0,4.0,100.0,,,,,,,,,,,,,,,,,,,,,,,,,,,,,,,,,,,,,,,,,203.680634,37.179897,11.287866,3.495448,5.455887,7.890492,3.561708,1.504316,0.413086,0.79433,72.301933,8.313074,3.69193,1.163628,0.652809,1.0
1709135120.36777,4233.846191,4142.563965,4265.641113,4.0,4.0,4.0,100.0,75.0,1.0,4.0,4.0,,,,,,,,,,,,,,,,,,,,,,,,,,,,,,,,,,,,,183.027405,33.410431,9.554234,3.625594,6.141325,8.328072,4.361691,1.667431,0.389666,0.718786,65.80658,7.204947,3.231345,1.206709,0.608401,1.0
1709135120.36777,4233.846191,4142.563965,4265.641113,4.0,4.0,4.0,100.0,75.0,1.0,4.0,4.0,,,,,,,,,,,,,,,,,,,,,,,,,,,,,,,,,,,,,183.027405,33.410431,9.554234,3.625594,6.141325,8.328072,4.361691,1.667431,0.389666,0.718786,65.80658,7.204947,3.231345,1.206709,0.608401,1.0
1709135120.492806,4134.871582,4110.769043,4190.256348,4.0,4.0,4.0,100.0,,,,,,,,,,,,,,,,,,,,,,,,,,,,,,,,,,,,,,,,,143.53743,29.223011,8.403745,3.906035,7.561329,8.292509,4.82942,1.846925,0.385097,0.637513,51.764732,5.633878,2.684317,1.249372,0.565525,1.0
1709135120.617842,4151.794922,4125.128418,4163.589844,4.0,4.0,4.0,100.0,,,,,,,,,,,,,,,,,,,,,,,,,,,,,,,,,,,,,,,,,105.973198,28.268232,8.706066,4.570696,9.928566,8.249359,4.826478,2.013388,0.408321,0.563747,37.249138,4.20061,2.224792,1.274808,0.529602,1.0
1709135120.742877,4193.846191,4140.512695,4184.102539,4.0,4.0,4.0,100.0,,,,,,,,,,,,,,,,,,,,,,,,,,,,,,,,,,,,,,,,,90.484787,32.332558,10.516787,5.757457,13.082031,8.517566,4.309148,2.098153,0.471715,0.50787,29.880867,3.3143,1.964668,1.268911,0.509477,1.0
1709135120.867913,4226.153809,4056.923096,4144.615234,4.0,4.0,4.0,100.0,75.0,1.0,4.0,4.0,,,,,,,,,,,,,,,,,,,,,,,,,,,,,,,,,,,,,107.027756,40.253716,13.021726,7.350711,16.360359,9.166773,3.423242,2.069315,0.581891,0.474079,34.242367,3.111515,1.923255,1.230844,0.520085,1.0
1709135120.867913,4226.153809,4056.923096,4144.615234,4.0,4.0,4.0,100.0,75.0,1.0,4.0,4.0,,,,,,,,,,,,,,,,,,,,,,,,,,,,,,,,,,,,,107.027756,40.253716,13.021726,7.350711,16.360359,9.166773,3.423242,2.069315,0.581891,0.474079,34.242367,3.111515,1.923255,1.230844,0.520085,1.0
1709135120.992948,4333.333496,4121.025879,4285.128418,4.0,4.0,4.0,100.0,,,,,,,,,,,,,,,,,,,,,,,,,,,,,,,,,,,,,,,,,145.837875,48.383694,15.00477,8.964756,18.78768,10.005073,2.483732,1.971976,0.731889,0.461552,47.510365,3.386791,2.019102,1.180472,0.576126,1.0
1709135121.117984,4333.333496,4169.230957,4332.307617,4.0,4.0,4.0,100.0,,,,,,,,,,,,,,,,,,,,,,,,,,,,,,,,,,,,,,,,,187.330032,52.541012,15.463901,10.097476,19.485302,11.209305,1.721572,1.883609,0.894465,0.468306,63.117466,3.832856,2.155376,1.152009,0.679699,1.0
1709135121.243019,4398.974121,4112.820313,4302.05127,4.0,4.0,4.0,100.0,,,,,,,,,,,,,,,,,,,,,,,,,,,,,,,,,,,,,,,,,211.197906,50.62149,14.214076,10.393837,18.095272,13.019173,1.256805,1.898286,1.033533,0.492773,73.683563,4.350309,2.263644,1.170933,0.811099,1.0
1709135121.368055,4424.615234,4107.692383,4296.410156,4.0,4.0,4.0,100.0,91.666664,3.0,4.0,4.0,,,,,,,,,,,,,,,,,,,,,,,,,,,,,,,,,,,,,210.213272,43.504444,11.81743,9.825952,14.947186,15.545845,1.140635,2.093919,1.121885,0.532995,75.860397,5.098216,2.320855,1.240941,0.932965,1.0
1709135121.368055,4424.615234,4107.692383,4296.410156,4.0,4.0,4.0,100.0,91.666664,3.0,4.0,4.0,,,,,,,,,,,,,,,,,,,,,,,,,,,,,,,,,,,,,210.213272,43.504444,11.81743,9.825952,14.947186,15.545845,1.140635,2.093919,1.121885,0.532995,75.860397,5.098216,2.320855,1.240941,0.932965,1.0
1709135121.493091,4454.871582,4142.05127,4324.615234,4.0,4.0,4.0,100.0,,,,,,,,,,,,,,,,,,,,,,,,,,,,,,,,,,,,,,,,,187.712357,34.002621,9.166829,8.69659,10.930484,18.461493,1.362859,2.470548,1.146854,0.585342,69.740173,6.193633,2.349247,1.338611,1.007231,1.0
1709135121.618126,4591.794922,4171.794922,4427.692383,4.0,4.0,4.0,100.0,,,,,,,,,,,,,,,,,,,,,,,,,,,,,,,,,,,,,,,,,153.287994,25.187721,7.032918,7.43075,7.110919,20.98675,1.892859,2.907199,1.109078,0.643183,57.975697,7.553278,2.364845,1.420608,1.012685,1.0
1709135121.743162,4275.897461,4183.589844,4326.153809,4.0,4.0,4.0,100.0,,,,,,,,,,,,,,,,,,,,,,,,,,,,,,,,,,,,,,,,,119.974091,19.174002,5.769168,6.392367,4.314194,22.169506,2.670411,3.240568,1.016954,0.69673,45.294716,8.874735,2.355614,1.440944,0.954319,1.0
1709135121.868197,4298.461426,4124.615234,4227.692383,4.0,4.0,4.0,100.0,75.0,1.0,4.0,4.0,,,,,,,,,,,,,,,,,,,,,,,,,,,,,,,,,,,,,95.594582,16.963982,5.188274,5.772669,2.929897,21.561274,3.589501,3.351398,0.888784,0.733628,35.531261,9.982133,2.303523,1.378188,0.861929,1.0
1709135121.868197,4298.461426,4124.615234,4227.692383,4.0,4.0,4.0,100.0,75.0,1.0,4.0,4.0,,,,,,,,,,,,,,,,,,,,,,,,,,,,,,,,,,,,,95.594582,16.963982,5.188274,5.772669,2.929897,21.561274,3.589501,3.351398,0.888784,0.733628,35.531261,9.982133,2.303523,1.378188,0.861929,1.0
1709135121.993233,4268.205078,4174.358887,4298.461426,4.0,4.0,4.0,100.0,,,,,,,,,,,,,,,,,,,,,,,,,,,,,,,,,,,,,,,,,84.77816,18.401413,4.815505,5.59488,3.009847,19.157021,4.539855,3.218136,0.746292,0.74306,31.709457,10.779786,2.17992,1.238696,0.776742,1.0
1709135122.118268,4330.256348,4104.615234,4293.333496,4.0,4.0,4.0,100.0,,,,,,,,,,,,,,,,,,,,,,,,,,,,,,,,,,,,,,,,,85.605141,22.604286,4.324718,5.773152,4.392125,15.752389,5.377733,2.928341,0.615428,0.721282,33.883686,11.292563,1.981403,1.062603,0.732131,1.0
1709135122.243304,4338.974121,4124.102539,4306.666504,4.0,4.0,4.0,100.0,,,,,,,,,,,,,,,,,,,,,,,,,,,,,,,,,,,,,,,,,94.819275,27.938078,3.654658,6.162468,6.788675,12.72144,6.067879,2.642555,0.533748,0.679407,39.764061,11.597639,1.745132,0.899929,0.739944,1.0
1709135122.368339,4386.666504,4148.717773,4324.102539,4.0,4.0,4.0,100.0,91.666664,3.0,4.0,4.0,,,,,,,,,,,,,,,,,,,,,,,,,,,,,,,,,,,,,105.570511,32.331493,2.936626,6.655712,9.729153,11.752395,6.640451,2.491759,0.553628,0.638605,46.216408,11.648916,1.583938,0.802573,0.789048,1.0
1709135122.368339,4386.666504,4148.717773,4324.102539,4.0,4.0,4.0,100.0,91.666664,3.0,4.0,4.0,,,,,,,,,,,,,,,,,,,,,,,,,,,,,,,,,,,,,105.570511,32.331493,2.936626,6.655712,9.729153,11.752395,6.640451,2.491759,0.553628,0.638605,46.216408,11.648916,1.583938,0.802573,0.789048,1.0
1709135122.493375,4421.025879,4167.179688,4349.230957,4.0,4.0,4.0,100.0,,,,,,,,,,,,,,,,,,,,,,,,,,,,,,,,,,,,,,,,,112.833328,34.443146,2.369983,7.155849,12.504772,13.914773,7.158394,2.51172,0.721771,0.61875,50.611744,11.416817,1.613165,0.806841,0.853755,1.0
1709135122.61841,4430.256348,4197.436035,4350.256348,4.0,4.0,4.0,100.0,,,,,,,,,,,,,,,,,,,,,,,,,,,,,,,,,,,,,,,,,113.131226,33.610046,2.12397,7.539502,14.344427,18.921104,7.656441,2.629754,1.032838,0.625665,51.330666,10.831257,1.858969,0.916256,0.90956,1.0
1709135122.743446,4531.794922,4181.538574,4396.410156,4.0,4.0,4.0,100.0,,,,,,,,,,,,,,,,,,,,,,,,,,,,,,,,,,,,,,,,,103.728226,29.831423,2.211677,7.68246,14.722343,25.018904,8.115747,2.746261,1.408134,0.650092,47.079189,9.786494,2.239125,1.106688,0.943391,1.0
1709135122.868482,4465.641113,4217.436035,4408.205078,4.0,4.0,4.0,100.0,91.666664,3.0,4.0,4.0,,,,,,,,,,,,,,,,,,,,,,,,,,,,,,,,,,,,,85.651588,23.928617,2.470477,7.51046,13.593555,30.010313,8.402414,2.745834,1.725303,0.678518,38.818581,8.296752,2.574653,1.327612,0.95859,1.0
1709135122.868482,4465.641113,4217.436035,4408.205078,4.0,4.0,4.0,100.0,91.666664,3.0,4.0,4.0,,,,,,,,,,,,,,,,,,,,,,,,,,,,,,,,,,,,,85.651588,23.928617,2.470477,7.51046,13.593555,30.010313,8.402414,2.745834,1.725303,0.678518,38.818581,8.296752,2.574653,1.327612,0.95859,1.0
1709135122.993517,4414.358887,4155.897461,4325.128418,4.0,4.0,4.0,100.0,,,,,,,,,,,,,,,,,,,,,,,,,,,,,,,,,,,,,,,,,61.182205,17.322523,2.678126,7.043386,11.453223,31.576578,8.285427,2.583354,1.887816,0.706102,28.054953,6.542155,2.713406,1.524792,0.966244,1.0
1709135123.118553,4433.333496,4216.922852,4334.871582,4.0,4.0,4.0,100.0,,,,,,,,,,,,,,,,,,,,,,,,,,,,,,,,,,,,,,,,,38.734905,11.698037,2.703073,6.438699,9.125737,28.973034,7.624541,2.333197,1.865535,0.738723,18.663383,4.99246,2.626772,1.668586,0.975944,1.0
1709135123.243588,4517.436035,4122.05127,4360.0,4.0,4.0,4.0,100.0,,,,,,,,,,,,,,,,,,,,,,,,,,,,,,,,,,,,,,,,,25.544786,8.403928,2.508349,5.856284,7.34346,23.135111,6.555874,2.05384,1.690277,0.784374,13.826118,4.179312,2.388033,1.752866,0.986909,1.0
1709135123.368624,4634.871582,4184.615234,4463.589844,4.0,4.0,4.0,100.0,83.333336,3.0,4.0,4.0,,,,,,,,,,,,,,,,,,,,,,,,,,,,,,,,,,,,,23.774605,7.97357,2.186927,5.430726,6.449502,16.448984,5.388061,1.776143,1.451235,0.845752,13.979629,4.320196,2.101212,1.787554,0.989185,1.0
1709135123.368624,4634.871582,4184.615234,4463.589844,4.0,4.0,4.0,100.0,83.333336,3.0,4.0,4.0,,,,,,,,,,,,,,,,,,,,,,,,,,,,,,,,,,,,,23.774605,7.97357,2.186927,5.430726,6.449502,16.448984,5.388061,1.776143,1.451235,0.845752,13.979629,4.320196,2.101212,1.787554,0.989185,1.0
1709135123.493659,4431.282227,4151.282227,4380.0,4.0,4.0,4.0,100.0,,,,,,,,,,,,,,,,,,,,,,,,,,,,,,,,,,,,,,,,,29.428387,9.450891,1.928508,5.194534,6.294473,12.291771,4.452641,1.549132,1.248169,0.91214,17.085369,5.123105,1.873938,1.780283,0.971085,1.0
1709135123.618695,4417.94873,4186.666504,4367.179688,4.0,4.0,4.0,100.0,,,,,,,,,,,,,,,,,,,,,,,,,,,,,,,,,,,,,,,,,36.832706,11.748288,1.961851,5.06153,6.404809,12.960447,3.985041,1.425647,1.145648,0.962188,20.237997,6.127352,1.760147,1.747416,0.926908,1.0
1709135123.743731,4471.794922,4177.436035,4304.615234,4.0,4.0,4.0,100.0,,,,,,,,,,,,,,,,,,,,,,,,,,,,,,,,,,,,,,,,,43.769432,14.067002,2.410418,4.933834,6.324394,18.355356,4.012633,1.431419,1.170734,0.974851,22.050571,6.819961,1.762973,1.717852,0.860125,1.0
1709135123.868766,4758.974121,4188.205078,4428.717773,4.0,4.0,4.0,100.0,91.666664,4.0,4.0,4.0,,,,,,,,,,,,,,,,,,,,,,,,,,,,,,,,,,,,,50.440258,16.131948,3.25855,4.75697,5.859426,25.949808,4.35951,1.534591,1.32049,0.940814,22.361212,6.9649,1.86726,1.729296,0.780277,1.0
1709135123.868766,4758.974121,4188.205078,4428.717773,4.0,4.0,4.0,100.0,91.666664,4.0,4.0,4.0,,,,,,,,,,,,,,,,,,,,,,,,,,,,,,,,,,,,,50.440258,16.131948,3.25855,4.75697,5.859426,25.949808,4.35951,1.534591,1.32049,0.940814,22.361212,6.9649,1.86726,1.729296,0.780277,1.0
1709135123.993802,4472.307617,4199.487305,4380.0,4.0,4.0,4.0,100.0,,,,,,,,,,,,,,,,,,,,,,,,,,,,,,,,,,,,,,,,,58.459457,18.029732,4.284922,4.501432,5.061036,32.321152,4.69525,1.675763,1.56002,0.871427,21.701618,6.605975,2.033633,1.817245,0.697177,1.0
1709135124.118837,4408.717773,4196.410156,4316.410156,4.0,4.0,4.0,100.0,,,,,,,,,,,,,,,,,,,,,,,,,,,,,,,,,,,,,,,,,67.150993,19.944422,5.204862,4.18245,4.123791,34.953796,4.667987,1.779076,1.835417,0.795958,21.181204,6.040529,2.26006,2.000746,0.616601,1.0
1709135124.243873,4358.461426,4187.179688,4278.974121,4.0,4.0,4.0,100.0,,,,,,,,,,,,,,,,,,,,,,,,,,,,,,,,,,,,,,,,,80.479813,22.62883,5.899621,3.85092,3.287619,33.053104,4.146894,1.769024,2.081899,0.744988,23.725906,5.87496,2.559088,2.259388,0.539633,1.0
1709135124.368908,4345.641113,4150.256348,4279.487305,4.0,4.0,4.0,100.0,100.0,4.0,4.0,4.0,1.0,0.323787,-1.834251,-3.723902,0.830133,1.0,0.442599,0.395429,-0.67106,1.607109,1.0,0.191854,5.972251,2.638418,17.779484,0.225659,1.0,0.409692,-0.143132,-0.337718,0.138112,1.0,0.456608,0.384565,-0.768509,1.768788,1.0,0.488476,6.597305,-39.945451,54.871728,1.0,0.320622,0.526347,0.467102,0.637512,103.452957,27.014074,6.349849,3.560162,2.727556,27.466221,3.261727,1.630307,2.234601,0.733227,32.36533,6.71743,2.895351,2.524738,0.466554,1.0
1709135124.368908,4345.641113,4150.256348,4279.487305,4.0,4.0,4.0,100.0,100.0,4.0,4.0,4.0,1.0,0.323787,-1.834251,-3.723902,0.830133,1.0,0.442599,0.395429,-0.67106,1.607109,1.0,0.191854,5.972251,2.638418,17.779484,0.225659,1.0,0.409692,-0.143132,-0.337718,0.138112,1.0,0.456608,0.384565,-0.768509,1.768788,1.0,0.488476,6.597305,-39.945451,54.871728,1.0,0.320622,0.526347,0.467102,0.637512,103.452957,27.014074,6.349849,3.560162,2.727556,27.466221,3.261727,1.630307,2.234601,0.733227,32.36533,6.71743,2.895351,2.524738,0.466554,1.0
1709135124.493944,4378.461426,4137.94873,4278.974121,4.0,4.0,4.0,100.0,,,,,,,,,,,,,,,,,,,,,,,,,,,,,,,,,,,,,,,,,136.229202,33.177319,6.577192,3.329463,2.481331,19.803612,2.316245,1.413553,2.248921,0.75183,46.934395,8.741523,3.187572,2.696163,0.402704,1.0
1709135124.61898,4372.820313,4121.538574,4297.94873,4.0,4.0,4.0,100.0,,,,,,,,,,,,,,,,,,,,,,,,,,,,,,,,,,,,,,,,,172.539444,40.007935,6.564938,3.163162,2.454568,12.635127,1.644638,1.192762,2.125393,0.777517,63.745838,11.523242,3.318142,2.689181,0.362065,1.0
1709135124.744015,4323.077148,4125.641113,4246.153809,4.0,4.0,4.0,100.0,,,,,,,,,,,,,,,,,,,,,,,,,,,,,,,,,,,,,,,,,201.564926,45.46331,6.270006,3.051706,2.505613,7.63622,1.407288,1.031497,1.913931,0.79417,77.382111,14.131198,3.218232,2.480239,0.360411,1.0
1709135124.869051,4358.974121,4141.538574,4236.922852,4.0,4.0,4.0,100.0,100.0,4.0,4.0,4.0,,,,,,,,,,,,,,,,,,,,,,,,,,,,,,,,,,,,,211.726929,47.330353,5.686678,3.028108,2.539315,4.9918,1.524224,0.95257,1.68871,0.807779,82.506424,15.523402,2.894207,2.115993,0.406664,1.0
1709135124.869051,4358.974121,4141.538574,4236.922852,4.0,4.0,4.0,100.0,100.0,4.0,4.0,4.0,,,,,,,,,,,,,,,,,,,,,,,,,,,,,,,,,,,,,211.726929,47.330353,5.686678,3.028108,2.539315,4.9918,1.524224,0.95257,1.68871,0.807779,82.506424,15.523402,2.894207,2.115993,0.406664,1.0
1709135124.994086,4411.282227,4154.871582,4213.333496,4.0,4.0,4.0,100.0,,,,,,,,,,,,,,,,,,,,,,,,,,,,,,,,,,,,,,,,,199.368256,44.156105,4.929773,3.15647,2.537212,3.960242,1.76714,0.953208,1.512856,0.845243,77.876831,14.979912,2.477366,1.707877,0.50689,1.0
1709135125.119122,4658.461426,4169.743652,4435.384766,4.0,4.0,4.0,100.0,,,,,,,,,,,,,,,,,,,,,,,,,,,,,,,,,,,,,,,,,164.284882,36.320286,4.201139,3.435278,2.527086,3.42417,1.93233,1.039902,1.42113,0.939535,63.832417,12.606418,2.139272,1.376235,0.673618,1.0
1709135125.244157,4298.461426,4185.641113,4313.333496,4.0,4.0,4.0,100.0,,,,,,,,,,,,,,,,,,,,,,,,,,,,,,,,,,,,,,,,,116.514534,25.733025,3.77304,3.830845,2.564735,3.036975,1.985907,1.224001,1.410952,1.116559,45.34745,9.158661,2.008224,1.199086,0.925183,1.0
1709135125.369193,4259.487305,4208.717773,4233.846191,4.0,4.0,4.0,100.0,100.0,4.0,4.0,4.0,,,,,,,,,,,,,,,,,,,,,,,,,,,,,,,,,,,,,71.017349,15.980055,4.036639,4.286369,2.714561,2.87375,1.944036,1.499616,1.454373,1.375524,28.338745,5.989194,2.151368,1.191664,1.263749,1.0
1709135125.369193,4259.487305,4208.717773,4233.846191,4.0,4.0,4.0,100.0,100.0,4.0,4.0,4.0,,,,,,,,,,,,,,,,,,,,,,,,,,,,,,,,,,,,,71.017349,15.980055,4.036639,4.286369,2.714561,2.87375,1.944036,1.499616,1.454373,1.375524,28.338745,5.989194,2.151368,1.191664,1.263749,1.0
1709135125.494228,4254.358887,4093.333252,4186.153809,4.0,4.0,4.0,100.0,,,,,,,,,,,,,,,,,,,,,,,,,,,,,,,,,,,,,,,,,43.810215,11.224464,5.266134,4.728237,3.02359,3.028126,1.862826,1.815835,1.52363,1.67448,18.249519,4.438637,2.53717,1.306874,1.65242,1.0
1709135125.619264,4273.846191,4123.077148,4192.820313,4.0,4.0,4.0,100.0,,,,,,,,,,,,,,,,,,,,,,,,,,,,,,,,,,,,,,,,,41.425484,13.436306,7.263403,5.114656,3.487924,3.67093,1.856779,2.096038,1.589966,1.937014,16.962999,4.990406,2.981325,1.45918,2.01369,1.0
1709135125.7443,4167.692383,4108.717773,4205.641113,4.0,4.0,4.0,100.0,,,,,,,,,,,,,,,,,,,,,,,,,,,,,,,,,,,,,,,,,60.290939,21.197622,9.405723,5.410451,4.034383,5.19451,1.969469,2.279776,1.624694,2.078875,23.265902,7.102002,3.27721,1.569665,2.254379,1.0
1709135125.869335,4136.922852,4104.615234,4162.05127,4.0,4.0,4.0,100.0,100.0,4.0,4.0,4.0,,,,,,,,,,,,,,,,,,,,,,,,,,,,,,,,,,,,,88.45771,30.556831,10.982985,5.564348,4.550956,7.876669,2.156344,2.364779,1.608034,2.050526,32.328484,9.549602,3.289631,1.58744,2.304321,1.0
1709135125.869335,4136.922852,4104.615234,4162.05127,4.0,4.0,4.0,100.0,100.0,4.0,4.0,4.0,,,,,,,,,,,,,,,,,,,,,,,,,,,,,,,,,,,,,88.45771,30.556831,10.982985,5.564348,4.550956,7.876669,2.156344,2.364779,1.608034,2.050526,32.328484,9.549602,3.289631,1.58744,2.304321,1.0
1709135125.994371,4145.641113,4110.256348,4140.0,4.0,4.0,4.0,100.0,,,,,,,,,,,,,,,,,,,,,,,,,,,,,,,,,,,,,,,,,112.725693,37.707588,11.534629,5.52939,4.928371,11.524654,2.359093,2.403729,1.540468,1.858759,39.932434,11.245419,3.029975,1.500585,2.148986,1.0
1709135126.119406,4148.205078,4091.281982,4009.230713,4.0,4.0,4.0,100.0,,,,,,,,,,,,,,,,,,,,,,,,,,,,,,,,,,,,,,,,,125.127144,40.637627,11.023592,5.271467,5.095796,15.256316,2.593016,2.446243,1.434206,1.559764,43.056324,11.722268,2.609176,1.330537,1.837003,1.0
1709135126.244442,4138.461426,4083.076904,3978.974365,4.0,4.0,4.0,100.0,,,,,,,,,,,,,,,,,,,,,,,,,,,,,,,,,,,,,,,,,125.49527,38.862183,9.759086,4.842573,5.0371,18.019995,2.910227,2.511309,1.311822,1.231399,41.876148,10.965821,2.179851,1.121712,1.460135,1.0
1709135126.369477,4044.615479,4106.153809,3987.692383,4.0,4.0,4.0,100.0,100.0,4.0,4.0,4.0,,,,,,,,,,,,,,,,,,,,,,,,,,,,,,,,,,,,,114.472931,33.500889,8.186229,4.402182,4.790518,18.712433,3.344163,2.56109,1.193927,0.943816,36.120705,9.352743,1.829563,0.927015,1.114321,1.0
1709135130.870758,4684.102539,4200.512695,4525.128418,4.0,4.0,4.0,100.0,91.666664,3.0,4.0,4.0,,,,,,,,,,,,,,,,,,,,,,,,,,,,,,,,,,,,,185.851715,44.549889,7.847319,7.163072,4.072495,18.458941,1.899104,1.798409,0.83224,0.804506,89.576973,14.497058,2.760996,1.776306,0.521593,0.0
1709135130.995793,4328.205078,4187.179688,4420.0,4.0,4.0,4.0,100.0,,,,,,,,,,,,,,,,,,,,,,,,,,,,,,,,,,,,,,,,,192.502853,48.179859,8.786699,5.648247,3.129422,21.010412,1.837428,2.225071,0.793248,0.672659,88.035942,14.301293,2.93501,1.681555,0.489229,0.0
1709135131.120829,4340.0,4159.487305,4350.769043,4.0,4.0,4.0,100.0,,,,,,,,,,,,,,,,,,,,,,,,,,,,,,,,,,,,,,,,,183.967621,49.120991,9.367719,4.10824,2.331941,22.39723,1.802707,2.696151,0.799771,0.591015,80.218376,13.088306,2.98218,1.547884,0.477482,0.0
1709135131.245864,4490.769043,4155.384766,4298.974121,4.0,4.0,4.0,100.0,,,,,,,,,,,,,,,,,,,,,,,,,,,,,,,,,,,,,,,,,165.731018,47.608955,9.217879,2.867821,1.839772,21.650785,1.751807,3.09892,0.872816,0.600256,69.31897,11.361549,2.881338,1.437862,0.499677,0.0
1709135131.3709,4576.922852,4095.384521,4135.897461,4.0,4.0,4.0,100.0,100.0,4.0,4.0,4.0,,,,,,,,,,,,,,,,,,,,,,,,,,,,,,,,,,,,,148.116837,44.709835,8.262221,2.088197,1.68926,18.693958,1.678924,3.316714,1.001156,0.704757,59.233208,9.686227,2.644933,1.394632,0.565401,0.0
1709135131.3709,4576.922852,4095.384521,4135.897461,4.0,4.0,4.0,100.0,100.0,4.0,4.0,4.0,,,,,,,,,,,,,,,,,,,,,,,,,,,,,,,,,,,,,148.116837,44.709835,8.262221,2.088197,1.68926,18.693958,1.678924,3.316714,1.001156,0.704757,59.233208,9.686227,2.644933,1.394632,0.565401,0.0
1709135131.495935,4637.94873,4170.769043,4178.974121,4.0,4.0,4.0,100.0,,,,,,,,,,,,,,,,,,,,,,,,,,,,,,,,,,,,,,,,,140.6586,41.581276,6.695346,1.734139,1.804114,14.215289,1.634083,3.274686,1.157326,0.871368,51.581879,8.392127,2.318045,1.413299,0.673904,1.0
1709135131.620971,4353.333496,4223.077148,4297.436035,4.0,4.0,4.0,100.0,,,,,,,,,,,,,,,,,,,,,,,,,,,,,,,,,,,,,,,,,142.58519,38.771381,4.924659,1.650672,2.059647,9.937694,1.717323,2.961159,1.319117,1.046041,46.890762,7.408438,1.976517,1.443924,0.813652,1.0
1709135131.746007,4195.897461,4198.461426,4231.794922,4.0,4.0,4.0,100.0,,,,,,,,,,,,,,,,,,,,,,,,,,,,,,,,,,,,,,,,,152.624496,36.366974,3.351207,1.712067,2.342632,7.419853,2.035924,2.475479,1.47278,1.17488,43.524494,6.542285,1.709097,1.424495,0.963105,1.0
1709135131.871042,4346.153809,4170.769043,4152.307617,4.0,4.0,4.0,100.0,91.666664,3.0,4.0,4.0,,,,,,,,,,,,,,,,,,,,,,,,,,,,,,,,,,,,,166.212357,35.277523,2.442288,1.890265,2.5877,6.800803,2.581611,1.986425,1.608935,1.22661,40.983959,5.782182,1.602498,1.319106,1.094678,1.0
1709135131.871042,4346.153809,4170.769043,4152.307617,4.0,4.0,4.0,100.0,91.666664,3.0,4.0,4.0,,,,,,,,,,,,,,,,,,,,,,,,,,,,,,,,,,,,,166.212357,35.277523,2.442288,1.890265,2.5877,6.800803,2.581611,1.986425,1.608935,1.22661,40.983959,5.782182,1.602498,1.319106,1.094678,1.0
1709135131.996078,4284.615234,4117.436035,4143.077148,4.0,4.0,4.0,100.0,,,,,,,,,,,,,,,,,,,,,,,,,,,,,,,,,,,,,,,,,179.362762,36.747719,2.273065,2.173446,2.773155,7.291629,3.273797,1.652146,1.712227,1.199243,39.05978,5.382143,1.671176,1.144791,1.183682,1.0
1709135132.121113,4216.922852,4133.846191,4241.025879,4.0,4.0,4.0,100.0,,,,,,,,,,,,,,,,,,,,,,,,,,,,,,,,,,,,,,,,,191.152298,40.946404,2.605605,2.510231,2.894088,8.278598,3.950783,1.557411,1.762598,1.112151,38.441589,5.591414,1.853335,0.953841,1.216921,1.0
1709135132.246149,4193.333496,4102.05127,4210.256348,4.0,4.0,4.0,100.0,,,,,,,,,,,,,,,,,,,,,,,,,,,,,,,,,,,,,,,,,200.867126,47.036839,3.124395,2.830504,2.954061,9.497334,4.433933,1.654587,1.73943,0.995963,39.126057,6.566646,2.038117,0.800364,1.196553,1.0
1709135132.371184,4263.077148,4143.589844,4230.769043,4.0,4.0,4.0,100.0,91.666664,3.0,4.0,4.0,,,,,,,,,,,,,,,,,,,,,,,,,,,,,,,,,,,,,214.201508,53.817463,3.654451,3.099187,2.975294,10.953855,4.640517,1.80186,1.633642,0.881278,41.924534,8.390095,2.139334,0.719876,1.137938,1.0
1709135132.371184,4263.077148,4143.589844,4230.769043,4.0,4.0,4.0,100.0,91.666664,3.0,4.0,4.0,,,,,,,,,,,,,,,,,,,,,,,,,,,,,,,,,,,,,214.201508,53.817463,3.654451,3.099187,2.975294,10.953855,4.640517,1.80186,1.633642,0.881278,41.924534,8.390095,2.139334,0.719876,1.137938,1.0
1709135132.49622,4229.230957,4161.538574,4297.436035,4.0,4.0,4.0,100.0,,,,,,,,,,,,,,,,,,,,,,,,,,,,,,,,,,,,,,,,,228.291824,59.489185,4.138536,3.311269,2.975878,12.337524,4.609972,1.855695,1.464264,0.789579,45.753754,10.759793,2.146306,0.715809,1.062007,1.0
1709135132.621256,4438.974121,4170.256348,4386.153809,4.0,4.0,4.0,100.0,,,,,,,,,,,,,,,,,,,,,,,,,,,,,,,,,,,,,,,,,239.951553,61.737823,4.432585,3.485785,2.955379,13.577299,4.471772,1.750631,1.272826,0.729112,49.718552,13.013916,2.092435,0.761497,0.984665,1.0
1709135132.746291,4257.436035,4182.563965,4322.05127,4.0,4.0,4.0,100.0,,,,,,,,,,,,,,,,,,,,,,,,,,,,,,,,,,,,,,,,,239.60965,58.733971,4.377582,3.629171,2.894555,14.242538,4.359665,1.528411,1.118214,0.697321,52.205299,14.332257,2.012631,0.820932,0.912138,1.0
1709135132.871327,4297.436035,4184.615234,4342.563965,4.0,4.0,4.0,100.0,91.666664,3.0,4.0,4.0,,,,,,,,,,,,,,,,,,,,,,,,,,,,,,,,,,,,,228.241821,50.6339,3.988055,3.717388,2.772791,13.995744,4.346527,1.296762,1.054926,0.687499,52.601437,14.185963,1.928565,0.865096,0.850538,1.0
1709135132.871327,4297.436035,4184.615234,4342.563965,4.0,4.0,4.0,100.0,91.666664,3.0,4.0,4.0,,,,,,,,,,,,,,,,,,,,,,,,,,,,,,,,,,,,,228.241821,50.6339,3.988055,3.717388,2.772791,13.995744,4.346527,1.296762,1.054926,0.687499,52.601437,14.185963,1.928565,0.865096,0.850538,1.0
1709135132.996362,4311.794922,4166.666504,4312.820313,4.0,4.0,4.0,100.0,,,,,,,,,,,,,,,,,,,,,,,,,,,,,,,,,,,,,,,,,207.252945,40.203636,3.506099,3.714661,2.592283,12.653199,4.358975,1.157655,1.105708,0.693372,50.464863,12.802535,1.860099,0.8832,0.813824,1.0
1709135133.121398,4449.230957,4187.692383,4410.256348,4.0,4.0,4.0,100.0,,,,,,,,,,,,,,,,,,,,,,,,,,,,,,,,,,,,,,,,,181.203003,31.289583,3.16053,3.58697,2.376713,10.458982,4.260471,1.175489,1.245159,0.706947,46.166637,10.959947,1.818756,0.879393,0.81649,-1.0
1709135133.246433,4436.410156,4174.358887,4397.94873,4.0,4.0,4.0,100.0,,,,,,,,,,,,,,,,,,,,,,,,,,,,,,,,,,,,,,,,,156.157684,26.033958,3.064084,3.316331,2.146489,7.972192,3.943693,1.349763,1.41884,0.720809,40.685314,9.378206,1.792172,0.858882,0.861414,-1.0
1709135133.371469,4346.666504,4139.487305,4367.692383,4.0,4.0,4.0,100.0,100.0,4.0,4.0,4.0,,,,,,,,,,,,,,,,,,,,,,,,,,,,,,,,,,,,,134.247864,24.260992,3.190931,2.923219,1.910241,5.88193,3.442729,1.607653,1.569952,0.733583,34.489174,8.51032,1.75196,0.827693,0.934483,-1.0
1709135133.371469,4346.666504,4139.487305,4367.692383,4.0,4.0,4.0,100.0,100.0,4.0,4.0,4.0,,,,,,,,,,,,,,,,,,,,,,,,,,,,,,,,,,,,,134.247864,24.260992,3.190931,2.923219,1.910241,5.88193,3.442729,1.607653,1.569952,0.733583,34.489174,8.51032,1.75196,0.827693,0.934483,-1.0
1709135133.496504,4351.282227,4154.358887,4345.641113,4.0,4.0,4.0,100.0,,,,,,,,,,,,,,,,,,,,,,,,,,,,,,,,,,,,,,,,,113.291153,24.327581,3.362531,2.466783,1.674424,4.740228,2.98234,1.889627,1.655465,0.749171,28.290148,8.511486,1.688815,0.792582,1.010216,-1.0
1709135133.62154,4553.333496,4159.487305,4498.974121,4.0,4.0,4.0,100.0,,,,,,,,,,,,,,,,,,,,,,,,,,,,,,,,,,,,,,,,,92.1045,24.23057,3.38527,2.023143,1.459525,4.614527,2.77867,2.165339,1.662667,0.771857,23.113119,9.124657,1.617031,0.75783,1.062055,-1.0
1709135133.746575,4262.563965,4178.974121,4399.487305,4.0,4.0,4.0,100.0,,,,,,,,,,,,,,,,,,,,,,,,,,,,,,,,,,,,,,,,,75.192184,23.515375,3.267464,1.672485,1.310648,5.068996,2.922668,2.414829,1.611642,0.799247,19.667143,10.018039,1.562003,0.731646,1.07064,-1.0
1709135133.871611,4205.128418,4245.128418,4346.666504,4.0,4.0,4.0,100.0,100.0,4.0,4.0,4.0,,,,,,,,,,,,,,,,,,,,,,,,,,,,,,,,,,,,,69.679787,22.763332,3.162747,1.484076,1.270365,5.588493,3.369395,2.609505,1.544265,0.823135,20.02025,10.999227,1.547321,0.725828,1.031624,-1.0
1709135133.871611,4205.128418,4245.128418,4346.666504,4.0,4.0,4.0,100.0,100.0,4.0,4.0,4.0,,,,,,,,,,,,,,,,,,,,,,,,,,,,,,,,,,,,,69.679787,22.763332,3.162747,1.484076,1.270365,5.588493,3.369395,2.609505,1.544265,0.823135,20.02025,10.999227,1.547321,0.725828,1.031624,-1.0
1709135133.996647,4215.384766,4135.384766,4360.0,4.0,4.0,4.0,100.0,,,,,,,,,,,,,,,,,,,,,,,,,,,,,,,,,,,,,,,,,85.420349,23.423622,3.337892,1.509604,1.358196,5.837563,3.92879,2.697567,1.498216,0.836515,26.421923,12.17127,1.602473,0.739969,0.957298,-1.0
1709135134.121682,4251.282227,4164.102539,4368.205078,4.0,4.0,4.0,100.0,,,,,,,,,,,,,,,,,,,,,,,,,,,,,,,,,,,,,,,,,130.508591,27.071259,4.062965,1.760242,1.573051,5.706097,4.433331,2.62327,1.485761,0.841051,39.864765,13.77771,1.761772,0.766116,0.870386,-1.0
1709135134.246718,4298.461426,4180.512695,4387.692383,4.0,4.0,4.0,100.0,,,,,,,,,,,,,,,,,,,,,,,,,,,,,,,,,,,,,,,,,201.192261,33.388943,5.304531,2.167255,1.883605,5.495623,4.777161,2.369834,1.489316,0.844638,57.947777,15.738879,2.022613,0.796234,0.7915,-1.0
1709135134.371753,4301.025879,4160.0,4342.563965,4.0,4.0,4.0,100.0,100.0,4.0,4.0,4.0,1.0,0.458988,-1.760715,-3.7208,0.820698,1.0,0.423294,0.317586,-0.669396,1.604345,1.0,0.219992,6.328088,2.630862,17.761595,0.218225,1.0,0.376871,-0.135233,-0.337385,0.13757,1.0,0.4187,0.365491,-0.765959,1.765802,1.0,0.475575,5.400845,-39.877439,54.776824,1.0,0.469151,0.554441,0.467239,0.637373,277.563782,40.061775,6.62252,2.593353,2.216578,5.764544,4.947872,1.974849,1.474479,0.851741,75.423538,17.571962,2.317802,0.829172,0.729771,-1.0
1709135134.371753,4301.025879,4160.0,4342.563965,4.0,4.0,4.0,100.0,100.0,4.0,4.0,4.0,1.0,0.458988,-1.760715,-3.7208,0.820698,1.0,0.423294,0.317586,-0.669396,1.604345,1.0,0.219992,6.328088,2.630862,17.761595,0.218225,1.0,0.376871,-0.135233,-0.337385,0.13757,1.0,0.4187,0.365491,-0.765959,1.765802,1.0,0.475575,5.400845,-39.877439,54.776824,1.0,0.469151,0.554441,0.467239,0.637373,277.563782,40.061775,6.62252,2.593353,2.216578,5.764544,4.947872,1.974849,1.474479,0.851741,75.423538,17.571962,2.317802,0.829172,0.729771,-1.0
1709135134.496789,4277.436035,4163.077148,4310.256348,4.0,4.0,4.0,100.0,,,,,,,,,,,,,,,,,,,,,,,,,,,,,,,,,,,,,,,,,332.59845,44.047783,7.471447,2.869276,2.472749,6.893392,5.017283,1.534337,1.409157,0.857623,86.103432,18.526968,2.537195,0.859067,0.68246,-1.0
1709135134.621824,4218.461426,4140.0,4304.615234,4.0,4.0,4.0,100.0,,,,,,,,,,,,,,,,,,,,,,,,,,,,,,,,,,,,,,,,,345.18515,43.050377,7.500175,2.879806,2.574434,8.797753,5.045656,1.175781,1.284037,0.853092,86.319534,18.011646,2.589182,0.873502,0.64842,-1.0
1709135134.74686,4275.897461,4120.0,4277.436035,4.0,4.0,4.0,100.0,,,,,,,,,,,,,,,,,,,,,,,,,,,,,,,,,,,,,,,,,308.531647,36.52079,6.653253,2.636202,2.52453,10.849561,5.029339,0.990599,1.120924,0.831494,75.825775,15.970087,2.442778,0.861598,0.63676,-1.0
1709135134.871896,4202.05127,4096.410156,4191.794922,4.0,4.0,4.0,100.0,100.0,4.0,4.0,4.0,,,,,,,,,,,,,,,,,,,,,,,,,,,,,,,,,,,,,234.793854,26.498348,5.240596,2.229562,2.403545,12.280555,4.900744,0.974852,0.956454,0.794303,58.48534,12.942843,2.163383,0.824258,0.657559,-1.0
1709135134.871896,4202.05127,4096.410156,4191.794922,4.0,4.0,4.0,100.0,100.0,4.0,4.0,4.0,,,,,,,,,,,,,,,,,,,,,,,,,,,,,,,,,,,,,234.793854,26.498348,5.240596,2.229562,2.403545,12.280555,4.900744,0.974852,0.956454,0.794303,58.48534,12.942843,2.163383,0.824258,0.657559,-1.0
1709135134.996931,4314.358887,4136.922852,4212.820313,4.0,4.0,4.0,100.0,,,,,,,,,,,,,,,,,,,,,,,,,,,,,,,,,,,,,,,,,148.867447,16.031473,3.723155,1.804555,2.323915,12.558027,4.577103,1.047525,0.823604,0.747305,40.082314,9.780931,1.84467,0.77082,0.707943,-1.0
1709135135.121967,4422.563965,4181.538574,4305.128418,4.0,4.0,4.0,100.0,,,,,,,,,,,,,,,,,,,,,,,,,,,,,,,,,,,,,,,,,75.946892,7.921842,2.487089,1.494776,2.372418,11.522627,4.031525,1.100973,0.745551,0.698134,25.573545,7.263631,1.566193,0.712414,0.770383,-1.0
1709135135.247002,4352.307617,4180.512695,4296.410156,4.0,4.0,4.0,100.0,,,,,,,,,,,,,,,,,,,,,,,,,,,,,,,,,,,,,,,,,31.183542,3.458373,1.768048,1.364547,2.557354,9.695991,3.349085,1.072967,0.727017,0.657024,17.449961,5.758489,1.420214,0.661563,0.820648,-1.0
1709135135.372038,4313.333496,4102.563965,4251.794922,4.0,4.0,4.0,100.0,100.0,4.0,4.0,4.0,,,,,,,,,,,,,,,,,,,,,,,,,,,,,,,,,,,,,14.18678,2.151483,1.606238,1.398227,2.799947,7.73302,2.720235,0.980822,0.760015,0.634421,14.592172,5.146417,1.481218,0.637823,0.840579,-1.0
1709135135.372038,4313.333496,4102.563965,4251.794922,4.0,4.0,4.0,100.0,100.0,4.0,4.0,4.0,,,,,,,,,,,,,,,,,,,,,,,,,,,,,,,,,,,,,14.18678,2.151483,1.606238,1.398227,2.799947,7.73302,2.720235,0.980822,0.760015,0.634421,14.592172,5.146417,1.481218,0.637823,0.840579,-1.0
1709135135.497073,4241.538574,4138.461426,4232.307617,4.0,4.0,4.0,100.0,,,,,,,,,,,,,,,,,,,,,,,,,,,,,,,,,,,,,,,,,13.877666,2.498427,1.882882,1.529535,2.977045,6.170451,2.358186,0.887532,0.821658,0.638955,14.258477,5.062153,1.740999,0.654904,0.825714,-1.0
1709135135.622109,4053.333252,4100.512695,4160.512695,4.0,4.0,4.0,100.0,,,,,,,,,,,,,,,,,,,,,,,,,,,,,,,,,,,,,,,,,17.992121,3.275831,2.45753,1.699007,2.998627,5.24144,2.323348,0.839098,0.885951,0.673299,14.00332,5.18418,2.125463,0.714679,0.786625,-1.0
1709135135.747145,4151.794922,4138.974121,4252.307617,4.0,4.0,4.0,100.0,,,,,,,,,,,,,,,,,,,,,,,,,,,,,,,,,,,,,,,,,24.038651,5.111905,3.267407,1.908513,2.904512,5.125105,2.532614,0.847255,0.938873,0.733895,13.548012,5.626779,2.574133,0.814135,0.748538,-1.0
1709135135.87218,4320.512695,4175.384766,4333.333496,4.0,4.0,4.0,100.0,100.0,4.0,4.0,4.0,,,,,,,,,,,,,,,,,,,,,,,,,,,,,,,,,,,,,36.557568,9.447224,4.205342,2.233146,2.862583,5.702354,2.77799,0.917962,0.992281,0.81626,13.724502,6.543827,3.011992,0.942454,0.743281,-1.0
1709135135.87218,4320.512695,4175.384766,4333.333496,4.0,4.0,4.0,100.0,100.0,4.0,4.0,4.0,,,,,,,,,,,,,,,,,,,,,,,,,,,,,,,,,,,,,36.557568,9.447224,4.205342,2.233146,2.862583,5.702354,2.77799,0.917962,0.992281,0.81626,13.724502,6.543827,3.011992,0.942454,0.743281,-1.0
1709135135.997216,4497.436035,4194.871582,4365.641113,4.0,4.0,4.0,100.0,,,,,,,,,,,,,,,,,,,,,,,,,,,,,,,,,,,,,,,,,57.491013,16.861814,5.203097,2.748161,3.062588,6.83054,2.902548,1.045246,1.078796,0.912441,14.83462,7.761304,3.337232,1.088914,0.798787,-1.0
1709135136.122251,4576.410156,4201.025879,4387.692383,4.0,4.0,4.0,100.0,,,,,,,,,,,,,,,,,,,,,,,,,,,,,,,,,,,,,,,,,85.42099,26.3482,6.166195,3.44152,3.576701,8.632697,2.845479,1.231125,1.218307,1.00886,16.77952,8.87852,3.455829,1.234584,0.923192,-1.0
1709135136.247287,4505.128418,4225.641113,4358.974121,4.0,4.0,4.0,100.0,,,,,,,,,,,,,,,,,,,,,,,,,,,,,,,,,,,,,,,,,113.716011,35.533642,6.920824,4.179473,4.28005,10.835149,2.628834,1.468778,1.390933,1.090354,18.881414,9.500774,3.306223,1.349809,1.09567,-1.0
1709135136.372322,4325.641113,4220.512695,4288.205078,4.0,4.0,4.0,100.0,100.0,4.0,4.0,4.0,,,,,,,,,,,,,,,,,,,,,,,,,,,,,,,,,,,,,133.429779,41.637566,7.330209,4.765474,4.903045,12.972123,2.409974,1.74114,1.548183,1.14757,20.158112,9.417936,2.923676,1.410368,1.271682,-1.0
1709135136.372322,4325.641113,4220.512695,4288.205078,4.0,4.0,4.0,100.0,100.0,4.0,4.0,4.0,,,,,,,,,,,,,,,,,,,,,,,,,,,,,,,,,,,,,133.429779,41.637566,7.330209,4.765474,4.903045,12.972123,2.409974,1.74114,1.548183,1.14757,20.158112,9.417936,2.923676,1.410368,1.271682,-1.0
1709135136.497358,3887.692383,4154.871582,4276.922852,4.0,4.0,4.0,100.0,,,,,,,,,,,,,,,,,,,,,,,,,,,,,,,,,,,,,,,,,137.811584,42.628548,7.307715,5.015991,5.194698,14.739758,2.386183,2.012593,1.644366,1.176921,19.812401,8.672825,2.411926,1.412601,1.40043,-1.0
1709135136.622393,3944.615479,4114.358887,4242.563965,4.0,4.0,4.0,100.0,,,,,,,,,,,,,,,,,,,,,,,,,,,,,,,,,,,,,,,,,123.557678,38.205788,7.052822,4.866381,5.063265,15.871565,2.635302,2.21429,1.651661,1.174573,17.688839,7.495697,1.927959,1.368695,1.443651,-1.0
1709135136.747429,4001.025635,4107.179688,4234.871582,4.0,4.0,4.0,100.0,,,,,,,,,,,,,,,,,,,,,,,,,,,,,,,,,,,,,,,,,97.333672,30.940493,6.978569,4.448386,4.618383,16.766575,3.108414,2.302804,1.575661,1.136056,14.436524,6.337268,1.628442,1.291754,1.390011,-1.0
1709135136.872465,4033.846191,4098.461426,4166.666504,4.0,4.0,4.0,100.0,91.666664,3.0,4.0,4.0,,,,,,,,,,,,,,,,,,,,,,,,,,,,,,,,,,,,,72.897926,24.445477,7.613731,4.031943,4.102154,17.82081,3.64237,2.284247,1.444491,1.057782,11.376031,5.608644,1.634575,1.1967,1.258741,-1.0
1709135136.872465,4033.846191,4098.461426,4166.666504,4.0,4.0,4.0,100.0,91.666664,3.0,4.0,4.0,,,,,,,,,,,,,,,,,,,,,,,,,,,,,,,,,,,,,72.897926,24.445477,7.613731,4.031943,4.102154,17.82081,3.64237,2.284247,1.444491,1.057782,11.376031,5.608644,1.634575,1.1967,1.258741,-1.0
1709135136.9975,4441.538574,4098.461426,4146.666504,4.0,4.0,4.0,100.0,,,,,,,,,,,,,,,,,,,,,,,,,,,,,,,,,,,,,,,,,61.377068,21.449688,9.213036,3.853255,3.736831,19.133972,4.032892,2.192899,1.287852,0.943747,9.814622,5.502709,1.943783,1.09585,1.09153,-1.0
1709135137.122536,4523.589844,4164.615234,4172.307617,4.0,4.0,4.0,100.0,,,,,,,,,,,,,,,,,,,,,,,,,,,,,,,,,,,,,,,,,67.094406,22.417032,11.540579,3.949269,3.597785,20.286375,4.159248,2.070186,1.127138,0.811879,10.354822,5.959574,2.46406,1.000567,0.934304,-1.0
1709135137.247571,4527.179688,4131.794922,4215.384766,4.0,4.0,4.0,100.0,,,,,,,,,,,,,,,,,,,,,,,,,,,,,,,,,,,,,,,,,84.392174,25.606014,13.981359,4.176262,3.601232,20.663965,4.005992,1.926721,0.976678,0.689001,12.546614,6.681017,3.029862,0.929398,0.816499,-1.0
1709135137.372607,4434.358887,4157.94873,4248.205078,4.0,4.0,4.0,100.0,91.666664,3.0,4.0,4.0,,,,,,,,,,,,,,,,,,,,,,,,,,,,,,,,,,,,,103.252213,27.948071,15.76297,4.34783,3.590972,19.782892,3.625389,1.762782,0.852469,0.600133,14.983358,7.228558,3.445075,0.900758,0.741574,-1.0
1709135137.372607,4434.358887,4157.94873,4248.205078,4.0,4.0,4.0,100.0,91.666664,3.0,4.0,4.0,,,,,,,,,,,,,,,,,,,,,,,,,,,,,,,,,,,,,103.252213,27.948071,15.76297,4.34783,3.590972,19.782892,3.625389,1.762782,0.852469,0.600133,14.983358,7.228558,3.445075,0.900758,0.741574,-1.0
1709135137.497642,4451.794922,4169.230957,4437.436035,4.0,4.0,4.0,100.0,,,,,,,,,,,,,,,,,,,,,,,,,,,,,,,,,,,,,,,,,114.404213,27.196692,16.328911,4.351543,3.459419,17.676142,3.138386,1.567319,0.771239,0.558245,16.374344,7.31233,3.595808,0.922652,0.690843,-1.0
1709135137.622678,4114.871582,4162.563965,4245.641113,4.0,4.0,4.0,100.0,,,,,,,,,,,,,,,,,,,,,,,,,,,,,,,,,,,,,,,,,115.130844,23.421192,15.721632,4.178792,3.263036,14.862737,2.68649,1.376173,0.751898,0.560043,16.263601,6.989377,3.553666,0.997945,0.64097,-1.0
1709135137.747713,4151.282227,4110.256348,4222.05127,4.0,4.0,4.0,100.0,,,,,,,,,,,,,,,,,,,,,,,,,,,,,,,,,,,,,,,,,107.7005,18.18185,14.321947,4.068249,3.200147,11.915255,2.397786,1.276479,0.791269,0.593105,16.361485,6.545365,3.370743,1.12887,0.586084,-1.0
1709135137.872749,4238.461426,4176.410156,4188.205078,4.0,4.0,4.0,100.0,75.0,1.0,4.0,4.0,,,,,,,,,,,,,,,,,,,,,,,,,,,,,,,,,,,,,103.542152,13.508129,12.829722,4.322788,3.489309,9.627999,2.394096,1.36199,0.866696,0.641494,20.575029,6.456744,3.092713,1.300441,0.542356,-1.0
1709135137.872749,4238.461426,4176.410156,4188.205078,4.0,4.0,4.0,100.0,75.0,1.0,4.0,4.0,,,,,,,,,,,,,,,,,,,,,,,,,,,,,,,,,,,,,103.542152,13.508129,12.829722,4.322788,3.489309,9.627999,2.394096,1.36199,0.866696,0.641494,20.575029,6.456744,3.092713,1.300441,0.542356,-1.0
1709135137.997785,4288.205078,4083.076904,4214.358887,4.0,4.0,4.0,100.0,,,,,,,,,,,,,,,,,,,,,,,,,,,,,,,,,,,,,,,,,113.341423,10.988606,11.770374,5.09543,4.212907,8.5418,2.736659,1.64606,0.937755,0.692154,32.194519,7.022937,2.747249,1.469819,0.53879,-1.0
1709135138.12282,4396.922852,4147.179688,4299.487305,4.0,4.0,4.0,100.0,,,,,,,,,,,,,,,,,,,,,,,,,,,,,,,,,,,,,,,,,139.578186,10.965033,11.324412,6.305828,5.274386,9.481208,3.388999,2.029114,0.960005,0.743309,51.245632,8.135583,2.38125,1.583403,0.6021,-1.0
1709135138.247856,4411.282227,4138.461426,4293.846191,4.0,4.0,4.0,100.0,,,,,,,,,,,,,,,,,,,,,,,,,,,,,,,,,,,,,,,,,173.641159,12.500608,11.309919,7.665487,6.445299,13.915706,4.14248,2.324762,0.915436,0.808634,72.660225,9.280969,2.06383,1.599917,0.738631,-1.0
1709135138.372891,4409.230957,4173.333496,4324.615234,4.0,4.0,4.0,100.0,91.666664,3.0,4.0,4.0,,,,,,,,,,,,,,,,,,,,,,,,,,,,,,,,,,,,,202.041946,14.072973,11.300275,8.754599,7.456085,22.67837,4.788042,2.388681,0.812604,0.901703,89.879448,9.835851,1.854542,1.507913,0.923943,-1.0
1709135139.373176,4340.0,4156.410156,4110.769043,4.0,4.0,4.0,100.0,100.0,4.0,4.0,4.0,,,,,,,,,,,,,,,,,,,,,,,,,,,,,,,,,,,,,6.903381,2.85105,1.485858,6.129162,3.698707,17.942381,2.407608,1.512015,1.070515,0.813945,3.823551,4.444585,1.830723,1.436558,0.809675,-1.0
1709135139.498211,4564.102539,4224.615234,4306.153809,4.0,4.0,4.0,100.0,,,,,,,,,,,,,,,,,,,,,,,,,,,,,,,,,,,,,,,,,6.389582,3.011186,1.336549,5.743156,3.11203,9.04218,2.01007,1.620991,1.149146,0.655742,3.125105,4.401801,1.759778,1.553736,0.776957,-1.0
1709135139.623247,4276.410156,4197.94873,4137.436035,4.0,4.0,4.0,100.0,,,,,,,,,,,,,,,,,,,,,,,,,,,,,,,,,,,,,,,,,7.042515,3.88511,1.433719,5.098479,2.753175,4.425901,1.700034,1.770189,1.165645,0.576723,2.908223,4.243533,1.717367,1.560471,0.775283,-1.0
1709135139.748283,4232.307617,4198.461426,4172.820313,4.0,4.0,4.0,100.0,,,,,,,,,,,,,,,,,,,,,,,,,,,,,,,,,,,,,,,,,14.197708,6.411541,1.918807,4.283454,2.634502,3.028022,1.516501,1.989838,1.147339,0.587353,5.308211,4.462787,1.818485,1.47003,0.801556,-1.0
1709135139.873318,4263.077148,4169.230957,4186.153809,4.0,4.0,4.0,100.0,100.0,4.0,4.0,4.0,,,,,,,,,,,,,,,,,,,,,,,,,,,,,,,,,,,,,36.56673,11.026541,2.881823,3.482658,2.712736,3.284213,1.539148,2.284661,1.126609,0.672068,13.442592,5.379364,2.138241,1.320406,0.857199,0.0
1709135139.873318,4263.077148,4169.230957,4186.153809,4.0,4.0,4.0,100.0,100.0,4.0,4.0,4.0,,,,,,,,,,,,,,,,,,,,,,,,,,,,,,,,,,,,,36.56673,11.026541,2.881823,3.482658,2.712736,3.284213,1.539148,2.284661,1.126609,0.672068,13.442592,5.379364,2.138241,1.320406,0.857199,0.0
1709135139.998354,4254.358887,4139.487305,4192.307617,4.0,4.0,4.0,100.0,,,,,,,,,,,,,,,,,,,,,,,,,,,,,,,,,,,,,,,,,77.364845,17.09433,4.220698,2.872585,2.920203,4.341308,1.80555,2.586715,1.123997,0.80697,28.879766,6.949114,2.635252,1.155212,0.943201,0.0
1709135140.123389,4247.692383,4160.0,4253.846191,4.0,4.0,4.0,100.0,,,,,,,,,,,,,,,,,,,,,,,,,,,,,,,,,,,,,,,,,131.280212,23.049,5.596716,2.546277,3.177965,5.783896,2.335392,2.777012,1.143659,0.961344,49.423622,8.723471,3.152373,1.01188,1.047728,0.0
1709135140.248425,4312.307617,4146.666504,4299.487305,4.0,4.0,4.0,100.0,,,,,,,,,,,,,,,,,,,,,,,,,,,,,,,,,,,,,,,,,184.902435,27.001501,6.570466,2.513477,3.39361,7.275506,2.969828,2.740581,1.1719,1.099797,69.890755,10.035151,3.474737,0.903374,1.140883,0.0
1709135140.37346,4280.0,4178.974121,4321.025879,4.0,4.0,4.0,100.0,100.0,4.0,4.0,4.0,,,,,,,,,,,,,,,,,,,,,,,,,,,,,,,,,,,,,220.313828,27.675987,6.860119,2.723975,3.492146,8.486514,3.48436,2.458949,1.191824,1.192569,83.595505,10.387868,3.474104,0.825364,1.187514,0.0
1709135140.37346,4280.0,4178.974121,4321.025879,4.0,4.0,4.0,100.0,100.0,4.0,4.0,4.0,,,,,,,,,,,,,,,,,,,,,,,,,,,,,,,,,,,,,220.313828,27.675987,6.860119,2.723975,3.492146,8.486514,3.48436,2.458949,1.191824,1.192569,83.595505,10.387868,3.474104,0.825364,1.187514,0.0
1709135140.498496,4242.563965,4151.282227,4329.743652,4.0,4.0,4.0,100.0,,,,,,,,,,,,,,,,,,,,,,,,,,,,,,,,,,,,,,,,,225.531281,24.797808,6.401834,3.051973,3.455479,9.171698,3.712134,1.994188,1.196094,1.223883,85.782867,9.593382,3.116365,0.772111,1.168443,0.0
1709135140.623531,4238.974121,4185.641113,4399.487305,4.0,4.0,4.0,100.0,,,,,,,,,,,,,,,,,,,,,,,,,,,,,,,,,,,,,,,,,198.046799,19.35697,5.487897,3.40978,3.334365,9.267451,3.617114,1.457684,1.191424,1.198765,75.727516,7.960995,2.522943,0.753898,1.097735,0.0
1709135140.748567,4216.922852,4184.615234,4396.922852,4.0,4.0,4.0,100.0,,,,,,,,,,,,,,,,,,,,,,,,,,,,,,,,,,,,,,,,,147.733795,13.238441,4.600285,3.782095,3.221255,8.850636,3.320994,0.968899,1.192382,1.148629,56.960144,6.12572,1.907358,0.78465,1.020598,0.0
1709135140.873603,4326.666504,4224.615234,4442.05127,4.0,4.0,4.0,100.0,91.666664,4.0,4.0,4.0,,,,,,,,,,,,,,,,,,,,,,,,,,,,,,,,,,,,,91.481453,8.195503,4.119141,4.209918,3.215888,8.030732,2.972269,0.621257,1.21356,1.122029,35.824768,4.698765,1.467839,0.88002,0.993357,0.0
1709135140.873603,4326.666504,4224.615234,4442.05127,4.0,4.0,4.0,100.0,91.666664,4.0,4.0,4.0,,,,,,,,,,,,,,,,,,,,,,,,,,,,,,,,,,,,,91.481453,8.195503,4.119141,4.209918,3.215888,8.030732,2.972269,0.621257,1.21356,1.122029,35.824768,4.698765,1.467839,0.88002,0.993357,0.0
1709135140.998638,4336.922852,4197.436035,4421.538574,4.0,4.0,4.0,100.0,,,,,,,,,,,,,,,,,,,,,,,,,,,,,,,,,,,,,,,,,44.961887,5.201559,4.140173,4.741963,3.352518,6.898019,2.692832,0.451413,1.259829,1.158324,18.366392,4.061033,1.317725,1.040941,1.049381,0.0
1709135141.123674,4374.358887,4204.102539,4464.102539,4.0,4.0,4.0,100.0,,,,,,,,,,,,,,,,,,,,,,,,,,,,,,,,,,,,,,,,,17.18362,4.19238,4.447093,5.378598,3.565726,5.593303,2.528731,0.427749,1.320317,1.268617,7.616363,4.20561,1.425368,1.235195,1.178236,0.0
1709135141.248709,4367.179688,4185.128418,4426.153809,4.0,4.0,4.0,100.0,,,,,,,,,,,,,,,,,,,,,,,,,,,,,,,,,,,,,,,,,6.748666,4.358075,4.742237,6.033173,3.725682,4.277062,2.448796,0.523282,1.371558,1.426409,3.514601,4.781385,1.698771,1.415077,1.328403,0.0
1709135141.373745,4353.846191,4153.846191,4378.974121,4.0,4.0,4.0,100.0,91.666664,4.0,4.0,4.0,,,,,,,,,,,,,,,,,,,,,,,,,,,,,,,,,,,,,5.825407,4.818346,4.814303,6.556557,3.719406,3.167594,2.4052,0.732812,1.387329,1.575244,2.815292,5.361397,2.040738,1.546181,1.431773,0.0
1709135141.373745,4353.846191,4153.846191,4378.974121,4.0,4.0,4.0,100.0,91.666664,4.0,4.0,4.0,,,,,,,,,,,,,,,,,,,,,,,,,,,,,,,,,,,,,5.825407,4.818346,4.814303,6.556557,3.719406,3.167594,2.4052,0.732812,1.387329,1.575244,2.815292,5.361397,2.040738,1.546181,1.431773,0.0
1709135141.49878,4399.487305,4160.0,4371.282227,4.0,4.0,4.0,100.0,,,,,,,,,,,,,,,,,,,,,,,,,,,,,,,,,,,,,,,,,6.536949,5.079837,4.62446,6.822675,3.530586,2.392106,2.399539,1.042374,1.351464,1.652108,3.057588,5.67931,2.353806,1.625641,1.437537,0.0
1709135141.623816,4360.512695,4176.922852,4322.563965,4.0,4.0,4.0,100.0,,,,,,,,,,,,,,,,,,,,,,,,,,,,,,,,,,,,,,,,,6.467465,5.137202,4.290642,6.765914,3.215626,2.013439,2.47506,1.423539,1.267296,1.618654,3.325034,5.744212,2.613565,1.676359,1.335761,0.0
1709135141.748851,4642.563965,4162.05127,4487.179688,4.0,4.0,4.0,100.0,,,,,,,,,,,,,,,,,,,,,,,,,,,,,,,,,,,,,,,,,5.838989,5.030271,3.897625,6.42683,2.866905,1.998479,2.649855,1.819202,1.163215,1.475853,3.543439,5.60905,2.757098,1.740398,1.159524,0.0
1709135141.873887,4105.641113,4163.589844,4330.256348,4.0,4.0,4.0,100.0,66.666664,3.0,4.0,4.0,,,,,,,,,,,,,,,,,,,,,,,,,,,,,,,,,,,,,5.03729,4.857046,3.407844,5.920717,2.576509,2.171605,2.886762,2.164732,1.084665,1.256764,3.948066,5.287765,2.783731,1.849964,0.963162,0.0
1709135141.873887,4105.641113,4163.589844,4330.256348,4.0,4.0,4.0,100.0,66.666664,3.0,4.0,4.0,,,,,,,,,,,,,,,,,,,,,,,,,,,,,,,,,,,,,5.03729,4.857046,3.407844,5.920717,2.576509,2.171605,2.886762,2.164732,1.084665,1.256764,3.948066,5.287765,2.783731,1.849964,0.963162,0.0
1709135141.998923,4190.256348,4181.025879,4304.615234,4.0,4.0,4.0,100.0,,,,,,,,,,,,,,,,,,,,,,,,,,,,,,,,,,,,,,,,,7.18925,5.259555,2.95651,5.406877,2.477433,2.356486,3.085587,2.389372,1.100057,1.015554,5.056744,4.841053,2.82162,2.011308,0.796537,0.0
1709135142.123958,4253.846191,4183.589844,4306.153809,4.0,4.0,4.0,100.0,,,,,,,,,,,,,,,,,,,,,,,,,,,,,,,,,,,,,,,,,23.550737,7.165909,3.111118,5.091178,2.85865,2.485174,3.143686,2.452702,1.286021,0.808784,9.006209,4.475366,3.08403,2.20394,0.691817,0.0
1709135142.248994,4389.230957,4161.538574,4309.743652,4.0,4.0,4.0,100.0,,,,,,,,,,,,,,,,,,,,,,,,,,,,,,,,,,,,,,,,,66.651131,11.222541,4.502708,5.197367,4.044145,2.556423,2.996424,2.35141,1.670082,0.670807,18.136833,4.347034,3.696522,2.383821,0.656321,0.0
1709135142.374029,4332.307617,4131.794922,4331.282227,4.0,4.0,4.0,100.0,66.666664,3.0,4.0,4.0,,,,,,,,,,,,,,,,,,,,,,,,,,,,,,,,,,,,,139.92775,17.23889,7.378391,5.851688,6.118774,2.565158,2.656924,2.121787,2.194149,0.605332,32.651215,4.49562,4.590494,2.493756,0.676391,0.0
1709135142.374029,4332.307617,4131.794922,4331.282227,4.0,4.0,4.0,100.0,66.666664,3.0,4.0,4.0,,,,,,,,,,,,,,,,,,,,,,,,,,,,,,,,,,,,,139.92775,17.23889,7.378391,5.851688,6.118774,2.565158,2.656924,2.121787,2.194149,0.605332,32.651215,4.49562,4.590494,2.493756,0.676391,0.0
1709135142.499065,4451.282227,4182.563965,4378.974121,4.0,4.0,4.0,100.0,,,,,,,,,,,,,,,,,,,,,,,,,,,,,,,,,,,,,,,,,231.971359,24.116247,11.180148,6.971547,8.766376,2.707021,2.269195,1.865282,2.71586,0.592081,49.926964,4.782862,5.510869,2.480321,0.726694,0.0
1709135142.6241,4472.820313,4191.794922,4404.615234,4.0,4.0,4.0,100.0,,,,,,,,,,,,,,,,,,,,,,,,,,,,,,,,,,,,,,,,,319.602753,30.034752,14.714693,8.276493,11.314674,3.78951,2.151815,1.669743,3.059375,0.602906,65.270493,5.007052,6.121766,2.31994,0.779011,0.0
1709135142.749136,4447.179688,4141.025879,4341.538574,4.0,4.0,4.0,100.0,,,,,,,,,,,,,,,,,,,,,,,,,,,,,,,,,,,,,,,,,378.59549,33.434231,16.665491,9.377561,13.026251,6.717129,2.552445,1.585222,3.091384,0.61531,74.263817,4.984861,6.18444,2.036896,0.813028,0.0
1709135142.874172,4426.666504,4216.410156,4372.820313,4.0,4.0,4.0,100.0,83.333336,3.0,4.0,4.0,,,,,,,,,,,,,,,,,,,,,,,,,,,,,,,,,,,,,388.925293,33.453304,16.228506,9.948851,13.445058,11.732162,3.493237,1.621322,2.778883,0.617877,74.634888,4.568719,5.679132,1.692069,0.824748,0.0
1709135142.874172,4426.666504,4216.410156,4372.820313,4.0,4.0,4.0,100.0,83.333336,3.0,4.0,4.0,,,,,,,,,,,,,,,,,,,,,,,,,,,,,,,,,,,,,388.925293,33.453304,16.228506,9.948851,13.445058,11.732162,3.493237,1.621322,2.778883,0.617877,74.634888,4.568719,5.679132,1.692069,0.824748,0.0
1709135142.999207,4448.205078,4208.717773,4398.974121,4.0,4.0,4.0,100.0,,,,,,,,,,,,,,,,,,,,,,,,,,,,,,,,,,,,,,,,,353.350708,30.597155,13.556916,9.807712,12.597282,17.901304,4.728872,1.73427,2.208699,0.612498,66.74752,3.801177,4.802697,1.365119,0.826741,0.0
1709135143.124243,4443.077148,4175.897461,4347.692383,4.0,4.0,4.0,100.0,,,,,,,,,,,,,,,,,,,,,,,,,,,,,,,,,,,,,,,,,286.123077,26.258507,9.666062,9.051239,10.963332,23.574215,5.840281,1.87076,1.54925,0.605739,54.375092,2.90771,3.892,1.126052,0.836815,1.0
1709135143.249278,4461.025879,4180.512695,4372.820313,4.0,4.0,4.0,100.0,,,,,,,,,,,,,,,,,,,,,,,,,,,,,,,,,,,,,,,,,212.938019,21.942335,5.864446,7.979422,9.187568,26.863155,6.443483,2.071113,0.985344,0.600956,41.438721,2.14001,3.268723,1.009233,0.865373,1.0
1709135143.374314,4460.0,4163.589844,4346.153809,4.0,4.0,4.0,100.0,83.333336,3.0,4.0,4.0,,,,,,,,,,,,,,,,,,,,,,,,,,,,,,,,,,,,,151.604874,18.507971,3.186566,6.931322,7.727184,26.620806,6.378448,2.431973,0.628102,0.59924,31.380762,1.684203,3.110559,0.983933,0.904579,1.0
1709135143.374314,4460.0,4163.589844,4346.153809,4.0,4.0,4.0,100.0,83.333336,3.0,4.0,4.0,,,,,,,,,,,,,,,,,,,,,,,,,,,,,,,,,,,,,151.604874,18.507971,3.186566,6.931322,7.727184,26.620806,6.378448,2.431973,0.628102,0.59924,31.380762,1.684203,3.110559,0.983933,0.904579,1.0
1709135143.499349,4474.358887,4178.461426,4365.641113,4.0,4.0,4.0,100.0,,,,,,,,,,,,,,,,,,,,,,,,,,,,,,,,,,,,,,,,,110.831772,15.865015,1.973577,6.166756,6.675201,22.888983,5.727325,3.056478,0.491749,0.602944,24.612995,1.554627,3.379247,0.996774,0.933985,1.0
1709135143.624385,4410.256348,4172.307617,4328.205078,4.0,4.0,4.0,100.0,,,,,,,,,,,,,,,,,,,,,,,,,,,,,,,,,,,,,,,,,85.08683,13.428719,1.880423,5.751959,5.821085,16.988579,4.737766,3.940722,0.511191,0.624093,20.031706,1.650268,3.889055,1.005483,0.934625,1.0
1709135143.749421,4422.563965,4173.333496,4287.179688,4.0,4.0,4.0,100.0,,,,,,,,,,,,,,,,,,,,,,,,,,,,,,,,,,,,,,,,,65.091614,10.693469,2.275968,5.575415,4.903746,10.891267,3.766958,4.950427,0.597656,0.678919,15.969716,1.888344,4.415168,1.002639,0.898168,1.0
1709135143.874456,4457.436035,4170.256348,4303.589844,4.0,4.0,4.0,100.0,100.0,4.0,4.0,4.0,,,,,,,,,,,,,,,,,,,,,,,,,,,,,,,,,,,,,44.915169,7.868613,2.660683,5.443144,3.865865,6.291934,3.169764,5.842726,0.688954,0.776167,11.864106,2.263889,4.743713,1.007525,0.832847,1.0
1709135143.874456,4457.436035,4170.256348,4303.589844,4.0,4.0,4.0,100.0,100.0,4.0,4.0,4.0,,,,,,,,,,,,,,,,,,,,,,,,,,,,,,,,,,,,,44.915169,7.868613,2.660683,5.443144,3.865865,6.291934,3.169764,5.842726,0.688954,0.776167,11.864106,2.263889,4.743713,1.007525,0.832847,1.0
1709135143.999492,4721.025879,4203.077148,4483.077148,4.0,4.0,4.0,100.0,,,,,,,,,,,,,,,,,,,,,,,,,,,,,,,,,,,,,,,,,26.471947,5.28249,2.853044,5.209309,2.897315,3.822714,3.139879,6.334368,0.767547,0.904926,8.411131,2.805814,4.734046,1.035759,0.758822,1.0
1709135144.124527,4391.282227,4211.282227,4345.128418,4.0,4.0,4.0,100.0,,,,,,,,,,,,,,,,,,,,,,,,,,,,,,,,,,,,,,,,,13.879053,3.945822,2.915328,4.819991,2.200836,3.020744,3.64827,6.248562,0.847214,1.034831,6.819268,3.713939,4.364576,1.088164,0.700248,1.0
1709135144.249563,4389.230957,4165.128418,4270.256348,4.0,4.0,4.0,100.0,,,,,,,,,,,,,,,,,,,,,,,,,,,,,,,,,,,,,,,,,16.32374,5.05258,3.009725,4.376908,1.844554,3.078119,4.505883,5.639032,0.954352,1.134541,9.773473,5.429187,3.763214,1.156455,0.684803,1.0
1709135144.374598,4336.922852,4169.743652,4294.358887,4.0,4.0,4.0,100.0,100.0,4.0,4.0,4.0,1.0,0.390659,-1.818336,-3.714751,0.810144,1.0,0.466094,0.418845,-0.667726,1.601572,1.0,0.202376,6.083523,2.623887,17.743402,0.211033,1.0,0.440444,-0.12788,-0.337031,0.137274,1.0,0.491172,0.479796,-0.763321,1.763621,1.0,0.470025,5.292179,-39.818192,54.681717,1.0,0.398438,0.524403,0.46734,0.637551,43.651379,9.409363,3.347063,4.059454,1.757937,3.455121,5.498333,4.778477,1.112715,1.188608,20.454914,8.202871,3.150377,1.233181,0.734961,1.0
1709135144.374598,4336.922852,4169.743652,4294.358887,4.0,4.0,4.0,100.0,100.0,4.0,4.0,4.0,1.0,0.390659,-1.818336,-3.714751,0.810144,1.0,0.466094,0.418845,-0.667726,1.601572,1.0,0.202376,6.083523,2.623887,17.743402,0.211033,1.0,0.440444,-0.12788,-0.337031,0.137274,1.0,0.491172,0.479796,-0.763321,1.763621,1.0,0.470025,5.292179,-39.818192,54.681717,1.0,0.398438,0.524403,0.46734,0.637551,43.651379,9.409363,3.347063,4.059454,1.757937,3.455121,5.498333,4.778477,1.112715,1.188608,20.454914,8.202871,3.150377,1.233181,0.734961,1.0
1709135144.499634,4326.666504,4165.128418,4243.077148,4.0,4.0,4.0,100.0,,,,,,,,,,,,,,,,,,,,,,,,,,,,,,,,,,,,,,,,,97.23027,16.762707,3.996959,4.038666,1.808096,4.201016,6.43875,4.054705,1.31864,1.200231,39.237408,11.823807,2.743461,1.309772,0.857869,1.0
1709135144.624669,4322.05127,4138.974121,4266.666504,4.0,4.0,4.0,100.0,,,,,,,,,,,,,,,,,,,,,,,,,,,,,,,,,,,,,,,,,166.981247,25.48613,4.823859,4.379654,1.926211,5.434041,7.155865,3.695501,1.524676,1.185589,62.736103,15.585971,2.667458,1.377963,1.040722,1.0
1709135144.749705,4317.94873,4138.974121,4283.077148,4.0,4.0,4.0,100.0,,,,,,,,,,,,,,,,,,,,,,,,,,,,,,,,,,,,,,,,,236.968536,33.007282,5.558624,4.996614,2.124964,7.462811,7.607712,3.717648,1.658808,1.162402,85.81176,18.456347,2.881904,1.425054,1.249185,1.0
1709135144.87474,4324.615234,4127.179688,4233.333496,4.0,4.0,4.0,100.0,100.0,4.0,4.0,4.0,,,,,,,,,,,,,,,,,,,,,,,,,,,,,,,,,,,,,285.357086,36.802258,5.919131,5.684705,2.436654,10.86981,7.859672,3.979734,1.662668,1.139328,101.322395,19.464558,3.21573,1.427898,1.433865,1.0
1709135144.87474,4324.615234,4127.179688,4233.333496,4.0,4.0,4.0,100.0,100.0,4.0,4.0,4.0,,,,,,,,,,,,,,,,,,,,,,,,,,,,,,,,,,,,,285.357086,36.802258,5.919131,5.684705,2.436654,10.86981,7.859672,3.979734,1.662668,1.139328,101.322395,19.464558,3.21573,1.427898,1.433865,1.0
1709135144.999776,4392.820313,4147.692383,4238.974121,4.0,4.0,4.0,100.0,,,,,,,,,,,,,,,,,,,,,,,,,,,,,,,,,,,,,,,,,295.58252,35.527416,5.733727,6.201485,2.848073,15.966692,7.983853,4.257837,1.516709,1.114065,104.081329,18.149147,3.445376,1.358613,1.546154,1.0
1709135145.124812,4748.205078,4154.358887,4497.436035,4.0,4.0,4.0,100.0,,,,,,,,,,,,,,,,,,,,,,,,,,,,,,,,,,,,,,,,,263.992645,29.930151,5.013187,6.336144,3.2745,22.136776,8.044578,4.366502,1.251528,1.077715,92.832069,14.962914,3.42464,1.2066,1.556302,1.0
1709135145.249847,4346.666504,4110.769043,4269.743652,4.0,4.0,4.0,100.0,,,,,,,,,,,,,,,,,,,,,,,,,,,,,,,,,,,,,,,,,200.319992,22.910419,4.027544,6.020445,3.614187,28.132524,8.007162,4.219048,0.951773,1.024783,70.673126,11.176743,3.165091,1.001116,1.467278,1.0
1709135145.374883,4322.05127,4087.692383,4229.230957,4.0,4.0,4.0,100.0,100.0,4.0,4.0,4.0,,,,,,,,,,,,,,,,,,,,,,,,,,,,,,,,,,,,,128.864578,17.26166,3.216819,5.376834,3.799554,32.194664,7.702664,3.822244,0.719671,0.957887,46.063457,7.848118,2.770487,0.797691,1.311441,1.0
1709135145.374883,4322.05127,4087.692383,4229.230957,4.0,4.0,4.0,100.0,100.0,4.0,4.0,4.0,,,,,,,,,,,,,,,,,,,,,,,,,,,,,,,,,,,,,128.864578,17.26166,3.216819,5.376834,3.799554,32.194664,7.702664,3.822244,0.719671,0.957887,46.063457,7.848118,2.770487,0.797691,1.311441,1.0
1709135145.499918,4328.205078,4130.769043,4240.0,4.0,4.0,4.0,100.0,,,,,,,,,,,,,,,,,,,,,,,,,,,,,,,,,,,,,,,,,80.989143,15.117874,2.927622,4.614555,3.820797,33.2575,7.050231,3.272831,0.645049,0.89086,29.897587,5.766333,2.367946,0.654342,1.136843,1.0
1709135145.624954,4319.487305,4092.820557,4267.179688,4.0,4.0,4.0,100.0,,,,,,,,,,,,,,,,,,,,,,,,,,,,,,,,,,,,,,,,,76.0364,16.931978,3.253772,3.943289,3.720521,31.060701,6.089246,2.703115,0.76183,0.842557,29.245275,5.150369,2.078011,0.608442,0.985786,1.0
1709135145.749989,4352.820313,4146.666504,4288.205078,4.0,4.0,4.0,100.0,,,,,,,,,,,,,,,,,,,,,,,,,,,,,,,,,,,,,,,,,110.932327,21.4172,3.954512,3.479567,3.560226,26.425106,4.921216,2.207075,1.029016,0.828506,43.262592,5.606204,1.932323,0.655662,0.87858,1.0
1709135145.875025,4343.589844,4117.436035,4254.871582,4.0,4.0,4.0,100.0,100.0,4.0,4.0,4.0,,,,,,,,,,,,,,,,,,,,,,,,,,,,,,,,,,,,,164.209824,26.285839,4.62084,3.210836,3.388072,20.880552,3.762398,1.823968,1.359198,0.851451,64.358444,6.418147,1.894108,0.763057,0.812852,1.0
1709135145.875025,4343.589844,4117.436035,4254.871582,4.0,4.0,4.0,100.0,100.0,4.0,4.0,4.0,,,,,,,,,,,,,,,,,,,,,,,,,,,,,,,,,,,,,164.209824,26.285839,4.62084,3.210836,3.388072,20.880552,3.762398,1.823968,1.359198,0.851451,64.358444,6.418147,1.894108,0.763057,0.812852,1.0
1709135146.000061,4397.94873,4133.846191,4264.102539,4.0,4.0,4.0,100.0,,,,,,,,,,,,,,,,,,,,,,,,,,,,,,,,,,,,,,,,,206.81694,29.318476,4.893569,3.061765,3.220549,16.173597,2.759782,1.567691,1.643192,0.898218,81.953362,6.927763,1.905666,0.884557,0.776387,1.0
1709135146.125096,4508.717773,4143.589844,4254.871582,4.0,4.0,4.0,100.0,,,,,,,,,,,,,,,,,,,,,,,,,,,,,,,,,,,,,,,,,220.525986,29.000208,4.659269,2.950186,3.041035,13.348089,2.019184,1.419205,1.783396,0.945835,89.193657,6.78641,1.923338,0.969128,0.757089,1.0
1709135146.250132,4676.922852,4201.538574,4526.666504,4.0,4.0,4.0,100.0,,,,,,,,,,,,,,,,,,,,,,,,,,,,,,,,,,,,,,,,,202.690674,25.243298,4.033137,2.796621,2.812835,12.507627,1.615599,1.361592,1.744906,0.972723,84.257553,6.036474,1.93031,0.978275,0.744016,1.0
1709135146.375167,4029.743652,4156.922852,4273.333496,4.0,4.0,4.0,100.0,100.0,4.0,4.0,4.0,,,,,,,,,,,,,,,,,,,,,,,,,,,,,,,,,,,,,159.954742,19.826561,3.392966,2.628981,2.530141,12.955553,1.513378,1.364027,1.568511,0.966994,68.049286,5.070913,1.93455,0.90973,0.733635,1.0
1709135146.375167,4029.743652,4156.922852,4273.333496,4.0,4.0,4.0,100.0,100.0,4.0,4.0,4.0,,,,,,,,,,,,,,,,,,,,,,,,,,,,,,,,,,,,,159.954742,19.826561,3.392966,2.628981,2.530141,12.955553,1.513378,1.364027,1.568511,0.966994,68.049286,5.070913,1.93455,0.90973,0.733635,1.0
1709135146.500203,4033.846191,4155.897461,4207.179688,4.0,4.0,4.0,100.0,,,,,,,,,,,,,,,,,,,,,,,,,,,,,,,,,,,,,,,,,109.181671,15.045568,3.478698,2.630852,2.264058,13.636687,1.620757,1.418198,1.348639,0.93525,46.82835,4.226682,2.001783,0.808325,0.744621,1.0
1709135146.625238,3946.666748,4121.538574,4095.384521,4.0,4.0,4.0,100.0,,,,,,,,,,,,,,,,,,,,,,,,,,,,,,,,,,,,,,,,,78.188408,13.164321,5.004222,3.112437,2.148579,14.009472,1.826167,1.552429,1.19238,0.900851,31.101526,3.819084,2.22128,0.747488,0.810426,1.0
1709135146.750274,4259.487305,4083.076904,4027.179443,4.0,4.0,4.0,100.0,,,,,,,,,,,,,,,,,,,,,,,,,,,,,,,,,,,,,,,,,89.441429,15.467869,8.238176,4.277188,2.298211,14.086185,2.012108,1.769043,1.160178,0.887559,28.64521,4.013022,2.641733,0.784633,0.949941,1.0
1709135146.87531,4512.307617,4082.05127,4038.461426,4.0,4.0,4.0,100.0,83.333336,3.0,4.0,4.0,,,,,,,,,,,,,,,,,,,,,,,,,,,,,,,,,,,,,141.74588,21.670845,12.733452,6.01221,2.737028,14.128824,2.076773,2.042548,1.24513,0.905155,39.887905,4.763423,3.207914,0.93199,1.145012,1.0
1709135146.87531,4512.307617,4082.05127,4038.461426,4.0,4.0,4.0,100.0,83.333336,3.0,4.0,4.0,,,,,,,,,,,,,,,,,,,,,,,,,,,,,,,,,,,,,141.74588,21.670845,12.733452,6.01221,2.737028,14.128824,2.076773,2.042548,1.24513,0.905155,39.887905,4.763423,3.207914,0.93199,1.145012,1.0
1709135147.000345,4728.205078,4129.230957,4293.333496,4.0,4.0,4.0,100.0,,,,,,,,,,,,,,,,,,,,,,,,,,,,,,,,,,,,,,,,,215.628387,29.679502,17.540787,7.896785,3.378535,14.552812,2.033102,2.343909,1.372722,0.945921,58.306469,5.842886,3.769572,1.142585,1.343708,1.0
1709135147.125381,4296.410156,4105.641113,4164.102539,4.0,4.0,4.0,100.0,,,,,,,,,,,,,,,,,,,,,,,,,,,,,,,,,,,,,,,,,285.590179,38.233688,21.735298,9.407847,4.055766,15.786068,1.99296,2.662987,1.455168,0.991609,75.242966,7.12849,4.18027,1.342913,1.485412,1.0
1709135147.250416,4192.820313,4116.410156,4147.692383,4.0,4.0,4.0,100.0,,,,,,,,,,,,,,,,,,,,,,,,,,,,,,,,,,,,,,,,,344.463257,46.394016,24.692017,10.12214,4.59198,17.855425,2.075622,3.007563,1.440383,1.022516,86.007813,8.376788,4.441895,1.476338,1.527241,1.0
1709135147.375452,4180.0,4089.230713,4130.256348,4.0,4.0,4.0,100.0,83.333336,3.0,4.0,4.0,,,,,,,,,,,,,,,,,,,,,,,,,,,,,,,,,,,,,398.68338,53.761204,26.124908,9.896091,4.883464,20.272223,2.329505,3.37569,1.327394,1.027128,91.963676,9.540446,4.64374,1.515132,1.463937,1.0
1709135147.375452,4180.0,4089.230713,4130.256348,4.0,4.0,4.0,100.0,83.333336,3.0,4.0,4.0,,,,,,,,,,,,,,,,,,,,,,,,,,,,,,,,,,,,,398.68338,53.761204,26.124908,9.896091,4.883464,20.272223,2.329505,3.37569,1.327394,1.027128,91.963676,9.540446,4.64374,1.515132,1.463937,1.0
1709135147.500487,4192.307617,4093.846191,4181.025879,4.0,4.0,4.0,100.0,,,,,,,,,,,,,,,,,,,,,,,,,,,,,,,,,,,,,,,,,451.884552,60.190269,25.996094,8.935123,4.935255,21.983948,2.705887,3.70479,1.153977,1.0042,93.572083,10.608505,4.855801,1.467722,1.330313,1.0
1709135147.625523,4227.692383,4110.256348,4229.230957,4.0,4.0,4.0,100.0,,,,,,,,,,,,,,,,,,,,,,,,,,,,,,,,,,,,,,,,,503.012604,65.011658,24.479584,7.655626,4.845742,22.080957,3.071679,3.871816,0.97784,0.958201,93.703484,11.49213,5.084786,1.36328,1.179357,1.0
1709135147.750559,4247.692383,4113.846191,4257.94873,4.0,4.0,4.0,100.0,,,,,,,,,,,,,,,,,,,,,,,,,,,,,,,,,,,,,,,,,537.74054,66.880196,21.815042,6.473742,4.744113,20.191532,3.297459,3.771846,0.854174,0.894173,92.118706,12.012668,5.248841,1.240145,1.058015,1.0
1709135147.875594,4238.461426,4134.358887,4284.615234,4.0,4.0,4.0,100.0,83.333336,3.0,4.0,4.0,,,,,,,,,,,,,,,,,,,,,,,,,,,,,,,,,,,,,539.614258,64.248062,18.287073,5.626971,4.707735,16.744837,3.295723,3.377534,0.805183,0.819294,88.433632,11.922782,5.216381,1.128347,0.99252,1.0
1709135147.875594,4238.461426,4134.358887,4284.615234,4.0,4.0,4.0,100.0,83.333336,3.0,4.0,4.0,,,,,,,,,,,,,,,,,,,,,,,,,,,,,,,,,,,,,539.614258,64.248062,18.287073,5.626971,4.707735,16.744837,3.295723,3.377534,0.805183,0.819294,88.433632,11.922782,5.216381,1.128347,0.99252,1.0
1709135148.00063,4218.974121,4095.384521,4270.256348,4.0,4.0,4.0,100.0,,,,,,,,,,,,,,,,,,,,,,,,,,,,,,,,,,,,,,,,,493.338409,56.461445,14.32767,5.128379,4.720187,12.602941,3.079396,2.766291,0.817232,0.742732,80.40638,11.093497,4.941961,1.039997,0.981846,1.0
1709135148.125665,4309.743652,4138.974121,4289.230957,4.0,4.0,4.0,100.0,,,,,,,,,,,,,,,,,,,,,,,,,,,,,,,,,,,,,,,,,402.337524,44.552185,10.636699,4.872885,4.705118,8.727115,2.75136,2.10373,0.856305,0.671459,67.443756,9.634584,4.597098,0.987497,1.002943,1.0
1709135148.250701,4380.512695,4151.794922,4357.436035,4.0,4.0,4.0,100.0,,,,,,,,,,,,,,,,,,,,,,,,,,,,,,,,,,,,,,,,,282.615417,30.998529,8.013592,4.774385,4.604735,5.793076,2.45389,1.575274,0.89155,0.608778,50.630226,7.853885,4.480618,0.991408,1.02592,1.0
1709135148.375736,4341.538574,4120.0,4352.820313,4.0,4.0,4.0,100.0,83.333336,3.0,4.0,4.0,,,,,,,,,,,,,,,,,,,,,,,,,,,,,,,,,,,,,166.812927,18.710703,6.962196,4.806005,4.427116,4.011992,2.307317,1.306351,0.907931,0.55903,33.241276,6.097599,4.82623,1.066465,1.027727,1.0
1709135148.375736,4341.538574,4120.0,4352.820313,4.0,4.0,4.0,100.0,83.333336,3.0,4.0,4.0,,,,,,,,,,,,,,,,,,,,,,,,,,,,,,,,,,,,,166.812927,18.710703,6.962196,4.806005,4.427116,4.011992,2.307317,1.306351,0.907931,0.55903,33.241276,6.097599,4.82623,1.066465,1.027727,1.0
1709135148.500772,4420.0,4148.205078,4441.025879,4.0,4.0,4.0,100.0,,,,,,,,,,,,,,,,,,,,,,,,,,,,,,,,,,,,,,,,,80.327507,9.771399,7.490524,4.92106,4.225167,3.203962,2.344724,1.303128,0.906807,0.525809,18.870708,4.678535,5.615673,1.196598,0.989033,1.0
1709135148.625807,4420.0,4176.410156,4464.615234,4.0,4.0,4.0,100.0,,,,,,,,,,,,,,,,,,,,,,,,,,,,,,,,,,,,,,,,,30.573933,5.177801,8.861513,5.00313,4.02178,3.100697,2.494237,1.452281,0.893308,0.512356,9.681623,3.806116,6.516239,1.334566,0.899056,1.0
1709135148.750843,4387.179688,4157.94873,4416.410156,4.0,4.0,4.0,100.0,,,,,,,,,,,,,,,,,,,,,,,,,,,,,,,,,,,,,,,,,13.545835,4.183014,10.10953,4.942266,3.794132,3.490925,2.636079,1.605042,0.883544,0.522435,6.19287,3.380995,7.107875,1.436188,0.767451,1.0
1709135148.875878,4381.538574,4181.538574,4428.205078,4.0,4.0,4.0,100.0,91.666664,4.0,4.0,4.0,,,,,,,,,,,,,,,,,,,,,,,,,,,,,,,,,,,,,13.678732,5.677285,10.61862,4.697527,3.513398,4.159171,2.723602,1.720209,0.908544,0.558775,5.670102,3.153042,7.142624,1.48301,0.629972,1.0
1709135148.875878,4381.538574,4181.538574,4428.205078,4.0,4.0,4.0,100.0,91.666664,4.0,4.0,4.0,,,,,,,,,,,,,,,,,,,,,,,,,,,,,,,,,,,,,13.678732,5.677285,10.61862,4.697527,3.513398,4.159171,2.723602,1.720209,0.908544,0.558775,5.670102,3.153042,7.142624,1.48301,0.629972,1.0
1709135149.000914,4412.820313,4174.358887,4409.743652,4.0,4.0,4.0,100.0,,,,,,,,,,,,,,,,,,,,,,,,,,,,,,,,,,,,,,,,,21.572815,8.744653,10.352184,4.326278,3.186719,4.839635,2.735541,1.876279,0.995422,0.626937,7.029368,2.993723,6.706555,1.478956,0.542463,1.0
1709135149.12595,4399.487305,4186.153809,4391.794922,4.0,4.0,4.0,100.0,,,,,,,,,,,,,,,,,,,,,,,,,,,,,,,,,,,,,,,,,33.714764,13.035354,9.611416,3.994906,2.87424,5.325984,2.667522,2.199182,1.153851,0.734947,9.002923,3.078334,6.160736,1.460543,0.555405,1.0
1709135149.250985,4357.436035,4185.128418,4313.333496,4.0,4.0,4.0,100.0,,,,,,,,,,,,,,,,,,,,,,,,,,,,,,,,,,,,,,,,,47.937466,17.943752,8.797973,3.84046,2.645495,5.51357,2.557543,2.789466,1.368074,0.880835,11.433195,3.401791,5.853227,1.465232,0.685943,1.0
1709135149.376021,4399.487305,4138.974121,4292.307617,4.0,4.0,4.0,100.0,91.666664,4.0,4.0,4.0,,,,,,,,,,,,,,,,,,,,,,,,,,,,,,,,,,,,,59.658756,22.218479,8.17706,3.89361,2.529205,5.346582,2.507047,3.63271,1.596254,1.044531,13.114719,3.953343,5.896609,1.494663,0.903935,1.0
1709135149.376021,4399.487305,4138.974121,4292.307617,4.0,4.0,4.0,100.0,91.666664,4.0,4.0,4.0,,,,,,,,,,,,,,,,,,,,,,,,,,,,,,,,,,,,,59.658756,22.218479,8.17706,3.89361,2.529205,5.346582,2.507047,3.63271,1.596254,1.044531,13.114719,3.953343,5.896609,1.494663,0.903935,1.0
1709135149.501056,4250.769043,4148.205078,4274.871582,4.0,4.0,4.0,100.0,,,,,,,,,,,,,,,,,,,,,,,,,,,,,,,,,,,,,,,,,65.862686,24.527813,7.737048,4.109054,2.528557,4.995211,2.621705,4.574179,1.783394,1.192659,14.094728,4.639277,6.109752,1.524051,1.140393,1.0
1709135149.626092,4299.487305,4150.769043,4295.897461,4.0,4.0,4.0,100.0,,,,,,,,,,,,,,,,,,,,,,,,,,,,,,,,,,,,,,,,,63.547169,24.125862,7.245872,4.399848,2.666816,4.719754,2.916598,5.347079,1.884901,1.288295,13.989885,5.214398,6.139184,1.527566,1.318917,1.0
1709135149.751127,4432.820313,4146.153809,4304.615234,4.0,4.0,4.0,100.0,,,,,,,,,,,,,,,,,,,,,,,,,,,,,,,,,,,,,,,,,53.842854,21.116507,6.512342,4.633905,2.978753,4.90716,3.319234,5.677747,1.876955,1.304899,13.26468,5.429231,5.679753,1.48639,1.389946,1.0
1709135149.876163,4513.846191,4180.512695,4342.05127,4.0,4.0,4.0,100.0,91.666664,4.0,4.0,4.0,,,,,,,,,,,,,,,,,,,,,,,,,,,,,,,,,,,,,40.003574,16.364882,5.525516,4.737462,3.470829,5.634578,3.717095,5.413184,1.774639,1.238668,12.256508,5.167469,4.693202,1.406555,1.342609,1.0
1709135149.876163,4513.846191,4180.512695,4342.05127,4.0,4.0,4.0,100.0,91.666664,4.0,4.0,4.0,,,,,,,,,,,,,,,,,,,,,,,,,,,,,,,,,,,,,40.003574,16.364882,5.525516,4.737462,3.470829,5.634578,3.717095,5.413184,1.774639,1.238668,12.256508,5.167469,4.693202,1.406555,1.342609,1.0
1709135150.001199,4649.743652,4194.358887,4376.922852,4.0,4.0,4.0,100.0,,,,,,,,,,,,,,,,,,,,,,,,,,,,,,,,,,,,,,,,,27.375406,11.410366,4.555622,4.70848,4.084233,6.713833,3.988951,4.631047,1.639543,1.110229,11.263518,4.50137,3.451091,1.318823,1.202376,1.0
1709135150.126234,4720.512695,4206.153809,4456.922852,4.0,4.0,4.0,100.0,,,,,,,,,,,,,,,,,,,,,,,,,,,,,,,,,,,,,,,,,18.891689,7.586197,3.985254,4.552804,4.693418,7.603457,4.052927,3.61386,1.540583,0.95769,10.214212,3.655178,2.346437,1.263278,1.017031,1.0
1709135150.25127,4503.077148,4181.025879,4355.897461,4.0,4.0,4.0,100.0,,,,,,,,,,,,,,,,,,,,,,,,,,,,,,,,,,,,,,,,,17.012606,5.471675,4.031362,4.255437,5.114479,7.968031,3.924613,2.684249,1.520596,0.818912,9.201686,2.916372,1.662302,1.259266,0.832946,1.0
1709135150.376305,4436.410156,4172.307617,4352.307617,4.0,4.0,4.0,100.0,91.666664,4.0,4.0,4.0,,,,,,,,,,,,,,,,,,,,,,,,,,,,,,,,,,,,,20.9513,5.126396,4.671706,3.819888,5.181563,7.476534,3.697892,2.059896,1.585301,0.716896,8.276306,2.674437,1.473461,1.303036,0.678937,1.0
1709135150.376305,4436.410156,4172.307617,4352.307617,4.0,4.0,4.0,100.0,91.666664,4.0,4.0,4.0,,,,,,,,,,,,,,,,,,,,,,,,,,,,,,,,,,,,,20.9513,5.126396,4.671706,3.819888,5.181563,7.476534,3.697892,2.059896,1.585301,0.716896,8.276306,2.674437,1.473461,1.303036,0.678937,1.0
1709135150.501341,4426.666504,4163.589844,4340.512695,4.0,4.0,4.0,100.0,,,,,,,,,,,,,,,,,,,,,,,,,,,,,,,,,,,,,,,,,29.461903,6.481317,5.659418,3.298702,4.838961,6.296828,3.465455,1.777885,1.699317,0.654093,7.681877,3.32876,1.637654,1.370327,0.561788,1.0
1709135150.626376,4413.333496,4158.974121,4299.487305,4.0,4.0,4.0,100.0,,,,,,,,,,,,,,,,,,,,,,,,,,,,,,,,,,,,,,,,,40.465038,9.405647,6.672042,2.799619,4.186893,4.76193,3.300645,1.721218,1.807711,0.611123,7.873205,5.05574,1.898753,1.422303,0.473009,1.0
1709135150.751412,4396.922852,4220.0,4329.743652,4.0,4.0,4.0,100.0,,,,,,,,,,,,,,,,,,,,,,,,,,,,,,,,,,,,,,,,,51.683052,13.378837,7.425153,2.453352,3.444737,3.390364,3.182794,1.720085,1.875136,0.568136,8.781305,7.601371,2.039622,1.430215,0.408569,1.0
1709135150.876448,4396.922852,4165.641113,4338.461426,4.0,4.0,4.0,100.0,100.0,4.0,4.0,4.0,,,,,,,,,,,,,,,,,,,,,,,,,,,,,,,,,,,,,60.027653,17.351986,7.745363,2.365326,2.843664,2.470571,3.020953,1.659635,1.895332,0.521417,10.061732,10.307065,1.988667,1.388327,0.379994,1.0
1709135150.876448,4396.922852,4165.641113,4338.461426,4.0,4.0,4.0,100.0,100.0,4.0,4.0,4.0,,,,,,,,,,,,,,,,,,,,,,,,,,,,,,,,,,,,,60.027653,17.351986,7.745363,2.365326,2.843664,2.470571,3.020953,1.659635,1.895332,0.521417,10.061732,10.307065,1.988667,1.388327,0.379994,1.0
1709135151.001483,4471.794922,4204.615234,4312.820313,4.0,4.0,4.0,100.0,,,,,,,,,,,,,,,,,,,,,,,,,,,,,,,,,,,,,,,,,62.844238,19.956055,7.590277,2.564816,2.519118,2.141522,2.771065,1.528533,1.890651,0.479936,11.067117,12.314841,1.820429,1.316719,0.405133,1.0
1709135151.126519,4599.487305,4187.692383,4383.077148,4.0,4.0,4.0,100.0,,,,,,,,,,,,,,,,,,,,,,,,,,,,,,,,,,,,,,,,,59.215561,20.084366,7.03141,2.973997,2.465328,2.540705,2.433878,1.410338,1.901203,0.452312,11.282403,12.866251,1.683904,1.285084,0.493398,1.0
1709135151.251554,4240.0,4145.641113,4252.307617,4.0,4.0,4.0,100.0,,,,,,,,,,,,,,,,,,,,,,,,,,,,,,,,,,,,,,,,,50.481358,17.550152,6.188194,3.446078,2.574698,3.692184,2.079443,1.460315,1.972525,0.442654,10.653062,11.728462,1.733028,1.383234,0.636379,1.0
1709135151.37659,4166.153809,4110.769043,4188.717773,4.0,4.0,4.0,100.0,100.0,4.0,4.0,4.0,,,,,,,,,,,,,,,,,,,,,,,,,,,,,,,,,,,,,39.557999,13.25391,5.241183,3.866924,2.736744,5.430392,1.810816,1.830075,2.134445,0.44702,9.723938,9.453395,2.056695,1.659337,0.801629,1.0
1709135151.37659,4166.153809,4110.769043,4188.717773,4.0,4.0,4.0,100.0,100.0,4.0,4.0,4.0,,,,,,,,,,,,,,,,,,,,,,,,,,,,,,,,,,,,,39.557999,13.25391,5.241183,3.866924,2.736744,5.430392,1.810816,1.830075,2.134445,0.44702,9.723938,9.453395,2.056695,1.659337,0.801629,1.0
1709135151.501625,4251.282227,4156.922852,4282.563965,4.0,4.0,4.0,100.0,,,,,,,,,,,,,,,,,,,,,,,,,,,,,,,,,,,,,,,,,29.956717,9.023264,4.427413,4.173003,2.899427,7.407259,1.750625,2.511309,2.376333,0.455955,9.549219,7.272012,2.594787,2.079186,0.943517,1.0
1709135151.626661,4332.307617,4169.230957,4352.820313,4.0,4.0,4.0,100.0,,,,,,,,,,,,,,,,,,,,,,,,,,,,,,,,,,,,,,,,,25.084112,6.581499,3.904405,4.358054,3.05297,9.189976,2.008581,3.31547,2.634569,0.464213,10.741105,6.334478,3.151178,2.519988,1.026188,1.0
1709135151.751696,4305.128418,4155.384766,4325.128418,4.0,4.0,4.0,100.0,,,,,,,,,,,,,,,,,,,,,,,,,,,,,,,,,,,,,,,,,26.766741,6.578377,3.71137,4.448928,3.194619,10.476763,2.559956,3.960545,2.824172,0.475867,13.367126,7.122805,3.497663,2.821862,1.040356,-1.0
1709135151.876732,4365.128418,4211.282227,4378.974121,4.0,4.0,4.0,100.0,100.0,4.0,4.0,4.0,,,,,,,,,,,,,,,,,,,,,,,,,,,,,,,,,,,,,33.588531,8.259723,3.792812,4.467015,3.313391,11.17801,3.232223,4.212259,2.873612,0.497202,16.574879,9.136724,3.484658,2.865275,1.003916,-1.0
1709135151.876732,4365.128418,4211.282227,4378.974121,4.0,4.0,4.0,100.0,100.0,4.0,4.0,4.0,,,,,,,,,,,,,,,,,,,,,,,,,,,,,,,,,,,,,33.588531,8.259723,3.792812,4.467015,3.313391,11.17801,3.232223,4.212259,2.873612,0.497202,16.574879,9.136724,3.484658,2.865275,1.003916,-1.0
1709135152.001768,4343.589844,4157.94873,4364.615234,4.0,4.0,4.0,100.0,,,,,,,,,,,,,,,,,,,,,,,,,,,,,,,,,,,,,,,,,41.579613,10.239597,4.033462,4.404001,3.38206,11.429983,3.820021,3.965707,2.745885,0.53269,19.080143,11.275818,3.133678,2.633238,0.953905,-1.0
1709135152.126803,4367.692383,4155.384766,4361.538574,4.0,4.0,4.0,100.0,,,,,,,,,,,,,,,,,,,,,,,,,,,,,,,,,,,,,,,,,46.393372,11.233191,4.326373,4.261872,3.372523,11.380832,4.205763,3.297098,2.452623,0.590985,19.913002,12.414738,2.616325,2.220015,0.93424,-1.0
1709135152.251839,4355.897461,4178.974121,4383.077148,4.0,4.0,4.0,100.0,,,,,,,,,,,,,,,,,,,,,,,,,,,,,,,,,,,,,,,,,46.745674,10.927379,4.595746,4.061217,3.264902,11.140005,4.369041,2.440546,2.05768,0.684557,18.899685,12.07975,2.150864,1.7836,0.974057,-1.0
1709135152.376874,4374.871582,4197.94873,4368.717773,4.0,4.0,4.0,100.0,100.0,4.0,4.0,4.0,,,,,,,,,,,,,,,,,,,,,,,,,,,,,,,,,,,,,41.444302,9.499604,4.722878,3.853427,3.064535,10.747639,4.337494,1.656344,1.662439,0.822842,16.290195,10.454587,1.908527,1.479399,1.073765,-1.0
1709135152.376874,4374.871582,4197.94873,4368.717773,4.0,4.0,4.0,100.0,100.0,4.0,4.0,4.0,,,,,,,,,,,,,,,,,,,,,,,,,,,,,,,,,,,,,41.444302,9.499604,4.722878,3.853427,3.064535,10.747639,4.337494,1.656344,1.662439,0.822842,16.290195,10.454587,1.908527,1.479399,1.073765,-1.0
1709135152.50191,4327.179688,4149.743652,4353.846191,4.0,4.0,4.0,100.0,,,,,,,,,,,,,,,,,,,,,,,,,,,,,,,,,,,,,,,,,32.914337,7.536146,4.625087,3.719585,2.806981,10.038126,4.160915,1.106431,1.362911,0.99749,12.960298,8.171964,1.903088,1.39206,1.206985,-1.0
1709135152.626945,4276.922852,4122.563965,4278.461426,4.0,4.0,4.0,100.0,,,,,,,,,,,,,,,,,,,,,,,,,,,,,,,,,,,,,,,,,23.599203,5.645596,4.267601,3.74343,2.55175,8.839927,3.86215,0.824292,1.217039,1.18048,9.901803,5.925029,2.022436,1.502816,1.337275,-1.0
1709135152.751981,4261.025879,4122.563965,4268.205078,4.0,4.0,4.0,100.0,,,,,,,,,,,,,,,,,,,,,,,,,,,,,,,,,,,,,,,,,16.118626,4.221616,3.725486,3.925899,2.371077,7.177954,3.473504,0.754426,1.22581,1.332554,7.652002,4.205972,2.119688,1.715823,1.431822,-1.0
1709135152.877016,4282.563965,4140.512695,4281.025879,4.0,4.0,4.0,100.0,100.0,4.0,4.0,4.0,,,,,,,,,,,,,,,,,,,,,,,,,,,,,,,,,,,,,10.959332,3.352508,3.13179,4.19138,2.316834,5.35302,2.982416,0.817335,1.332485,1.415853,6.199936,3.141067,2.107071,1.911528,1.469136,-1.0
1709135152.877016,4282.563965,4140.512695,4281.025879,4.0,4.0,4.0,100.0,100.0,4.0,4.0,4.0,,,,,,,,,,,,,,,,,,,,,,,,,,,,,,,,,,,,,10.959332,3.352508,3.13179,4.19138,2.316834,5.35302,2.982416,0.817335,1.332485,1.415853,6.199936,3.141067,2.107071,1.911528,1.469136,-1.0
1709135153.002052,4296.410156,4143.589844,4270.256348,4.0,4.0,4.0,100.0,,,,,,,,,,,,,,,,,,,,,,,,,,,,,,,,,,,,,,,,,8.144225,2.827747,2.606299,4.432845,2.398375,3.823239,2.403352,0.959304,1.454162,1.403737,5.299482,2.527024,1.973135,1.994539,1.435095,-1.0
1709135153.127088,4313.333496,4136.922852,4250.256348,4.0,4.0,4.0,100.0,,,,,,,,,,,,,,,,,,,,,,,,,,,,,,,,,,,,,,,,,6.3662,2.374663,2.206381,4.554502,2.588223,2.813818,1.793768,1.155421,1.524605,1.293847,4.596151,2.064759,1.764241,1.90925,1.329794,-1.0
1709135153.252123,4255.897461,4112.307617,4234.871582,4.0,4.0,4.0,100.0,,,,,,,,,,,,,,,,,,,,,,,,,,,,,,,,,,,,,,,,,5.15806,1.91935,1.917043,4.509635,2.851319,2.387832,1.23949,1.366353,1.519569,1.113401,4.017722,1.650394,1.544858,1.662883,1.170031,-1.0
1709135153.377159,4235.384766,4106.666504,4202.563965,4.0,4.0,4.0,100.0,100.0,4.0,4.0,4.0,,,,,,,,,,,,,,,,,,,,,,,,,,,,,,,,,,,,,4.116343,1.565671,1.73315,4.313088,3.144125,2.24997,0.874519,1.552707,1.452706,0.909627,3.591634,1.355107,1.387455,1.324092,0.98674,-1.0
1709135153.377159,4235.384766,4106.666504,4202.563965,4.0,4.0,4.0,100.0,100.0,4.0,4.0,4.0,,,,,,,,,,,,,,,,,,,,,,,,,,,,,,,,,,,,,4.116343,1.565671,1.73315,4.313088,3.144125,2.24997,0.874519,1.552707,1.452706,0.909627,3.591634,1.355107,1.387455,1.324092,0.98674,-1.0
1709135153.502194,4185.641113,4052.820557,4182.563965,4.0,4.0,4.0,100.0,,,,,,,,,,,,,,,,,,,,,,,,,,,,,,,,,,,,,,,,,3.335841,1.510781,1.649451,4.024621,3.423311,2.255558,0.782865,1.678292,1.359619,0.729525,3.329695,1.231828,1.292994,0.983351,0.821185,-1.0
1709135153.62723,4258.974121,4100.0,4226.666504,4.0,4.0,4.0,100.0,,,,,,,,,,,,,,,,,,,,,,,,,,,,,,,,,,,,,,,,,3.05085,1.855787,1.713394,3.718193,3.65,2.269123,0.90382,1.742003,1.275388,0.600599,3.193233,1.25791,1.235897,0.712642,0.70958,-1.0
1709135153.752265,4240.512695,4066.666748,4229.743652,4.0,4.0,4.0,100.0,,,,,,,,,,,,,,,,,,,,,,,,,,,,,,,,,,,,,,,,,3.14885,2.532076,1.972892,3.47102,3.799084,2.226638,1.109138,1.762458,1.210978,0.525205,3.10303,1.334645,1.183885,0.544078,0.664226,-1.0
1709135153.877301,4297.94873,4149.230957,4281.025879,4.0,4.0,4.0,100.0,100.0,4.0,4.0,4.0,,,,,,,,,,,,,,,,,,,,,,,,,,,,,,,,,,,,,3.375053,3.356969,2.406071,3.344281,3.872171,2.054761,1.30715,1.75935,1.160747,0.496571,2.948802,1.381667,1.116531,0.472175,0.674737,-1.0
1709135153.877301,4297.94873,4149.230957,4281.025879,4.0,4.0,4.0,100.0,100.0,4.0,4.0,4.0,,,,,,,,,,,,,,,,,,,,,,,,,,,,,,,,,,,,,3.375053,3.356969,2.406071,3.344281,3.872171,2.054761,1.30715,1.75935,1.160747,0.496571,2.948802,1.381667,1.116531,0.472175,0.674737,-1.0
1709135154.002337,4304.102539,4097.94873,4275.384766,4.0,4.0,4.0,100.0,,,,,,,,,,,,,,,,,,,,,,,,,,,,,,,,,,,,,,,,,3.589519,4.123434,2.930583,3.347848,3.888055,1.922338,1.481447,1.768384,1.114783,0.511827,2.780582,1.408161,1.044734,0.474197,0.716784,-1.0
1709135154.127372,4325.128418,4169.230957,4297.94873,4.0,4.0,4.0,100.0,,,,,,,,,,,,,,,,,,,,,,,,,,,,,,,,,,,,,,,,,3.71675,4.734683,3.444291,3.430009,3.868765,2.347062,1.676743,1.828872,1.067014,0.566355,2.714659,1.510757,1.026427,0.529995,0.760255,-1.0
1709135154.252408,4374.358887,4100.0,4333.846191,4.0,4.0,4.0,100.0,,,,,,,,,,,,,,,,,,,,,,,,,,,,,,,,,,,,,,,,,3.78649,5.160613,3.854585,3.526865,3.829775,3.806633,1.925062,1.968662,1.017177,0.647552,2.805703,1.790588,1.124468,0.628553,0.783072,-1.0
1709135154.377443,4353.846191,4131.282227,4312.307617,4.0,4.0,4.0,100.0,100.0,4.0,4.0,4.0,1.0,0.349645,-2.108301,-3.71355,0.800604,1.0,0.442875,0.360613,-0.665604,1.598857,1.0,0.231644,6.587645,2.618096,17.724544,0.210096,1.0,0.408412,-0.135267,-0.336599,0.136808,1.0,0.470913,0.388293,-0.760589,1.761697,1.0,0.472778,5.027715,-39.756428,54.587278,1.0,0.299524,0.524677,0.467391,0.637424,3.814098,5.416067,4.123236,3.614251,3.776865,6.502893,2.198272,2.190011,0.968088,0.740966,3.039002,2.263551,1.365238,0.761339,0.784365,-1.0
1709135154.377443,4353.846191,4131.282227,4312.307617,4.0,4.0,4.0,100.0,100.0,4.0,4.0,4.0,1.0,0.349645,-2.108301,-3.71355,0.800604,1.0,0.442875,0.360613,-0.665604,1.598857,1.0,0.231644,6.587645,2.618096,17.724544,0.210096,1.0,0.408412,-0.135267,-0.336599,0.136808,1.0,0.470913,0.388293,-0.760589,1.761697,1.0,0.472778,5.027715,-39.756428,54.587278,1.0,0.299524,0.524677,0.467391,0.637424,3.814098,5.416067,4.123236,3.614251,3.776865,6.502893,2.198272,2.190011,0.968088,0.740966,3.039002,2.263551,1.365238,0.761339,0.784365,-1.0
1709135154.502479,4360.0,4146.153809,4313.846191,4.0,4.0,4.0,100.0,,,,,,,,,,,,,,,,,,,,,,,,,,,,,,,,,,,,,,,,,3.799081,5.506054,4.253171,3.717472,3.701429,9.948528,2.414744,2.43823,0.918741,0.834442,3.335562,2.822962,1.694906,0.915587,0.785845,-1.0
1709135154.627514,4349.743652,4133.333496,4274.358887,4.0,4.0,4.0,100.0,,,,,,,,,,,,,,,,,,,,,,,,,,,,,,,,,,,,,,,,,3.750972,5.428665,4.264627,3.849527,3.577891,13.203572,2.501585,2.640362,0.862003,0.920921,3.60707,3.299386,1.998399,1.06687,0.818288,-1.0
1709135154.75255,4290.256348,4149.743652,4231.282227,4.0,4.0,4.0,100.0,,,,,,,,,,,,,,,,,,,,,,,,,,,,,,,,,,,,,,,,,3.63395,5.185887,4.16424,3.987411,3.378142,15.370797,2.441359,2.719677,0.792186,1.002131,3.777744,3.547729,2.166343,1.181195,0.904614,-1.0
1709135154.877586,4167.692383,4003.076904,4168.717773,4.0,4.0,4.0,100.0,100.0,4.0,4.0,4.0,,,,,,,,,,,,,,,,,,,,,,,,,,,,,,,,,,,,,3.520981,4.772414,3.906801,4.080464,3.114275,15.921953,2.220143,2.60271,0.707222,1.081745,3.843946,3.521544,2.140599,1.228506,1.042947,-1.0
1709135154.877586,4167.692383,4003.076904,4168.717773,4.0,4.0,4.0,100.0,100.0,4.0,4.0,4.0,,,,,,,,,,,,,,,,,,,,,,,,,,,,,,,,,,,,,3.520981,4.772414,3.906801,4.080464,3.114275,15.921953,2.220143,2.60271,0.707222,1.081745,3.843946,3.521544,2.140599,1.228506,1.042947,-1.0
1709135155.002621,4134.871582,4020.0,4101.538574,4.0,4.0,4.0,100.0,,,,,,,,,,,,,,,,,,,,,,,,,,,,,,,,,,,,,,,,,3.479639,4.231817,3.455097,4.064488,2.84517,14.934539,1.930228,2.284928,0.61464,1.155873,3.846614,3.286644,1.916507,1.197799,1.201768,-1.0
