Timestamp,EEG.AF3,EEG.Pz,EEG.AF4,CQ.AF3,CQ.Pz,CQ.AF4,CQ.Overall,EQ.OVERALL,EQ.AF3,EQ.Pz,EQ.AF4,PM.Attention.IsActive,PM.Attention.Scaled,PM.Attention.Raw,PM.Attention.Min,PM.Attention.Max,PM.Engagement.IsActive,PM.Engagement.Scaled,PM.Engagement.Raw,PM.Engagement.Min,PM.Engagement.Max,PM.Excitement.IsActive,PM.Excitement.Scaled,PM.Excitement.Raw,PM.Excitement.Min,PM.Excitement.Max,PM.LongTermExcitement,PM.Stress.IsActive,PM.Stress.Scaled,PM.Stress.Raw,PM.Stress.Min,PM.Stress.Max,PM.Relaxation.IsActive,PM.Relaxation.Scaled,PM.Relaxation.Raw,PM.Relaxation.Min,PM.Relaxation.Max,PM.Interest.IsActive,PM.Interest.Scaled,PM.Interest.Raw,PM.Interest.Min,PM.Interest.Max,PM.Focus.IsActive,PM.Focus.Scaled,PM.Focus.Raw,PM.Focus.Min,PM.Focus.Max,POW.AF3.Theta,POW.AF3.Alpha,POW.AF3.BetaL,POW.AF3.BetaH,POW.AF3.Gamma,POW.Pz.Theta,POW.Pz.Alpha,POW.Pz.BetaL,POW.Pz.BetaH,POW.Pz.Gamma,POW.AF4.Theta,POW.AF4.Alpha,POW.AF4.BetaL,POW.AF4.BetaH,POW.AF4.Gamma,label
1709134426.670268,4271.282227,4093.846191,4283.589844,4.0,4.0,4.0,100.0,100.0,4.0,4.0,4.0,,,,,,,,,,,,,,,,,,,,,,,,,,,,,,,,,,,,,19.338234,1.922096,2.613787,3.360346,2.787261,2.387966,0.43581,0.436757,0.456126,0.390237,11.728321,1.461664,0.946068,0.621138,0.57133,1.0
1709134426.795303,4240.0,4122.563965,4208.205078,4.0,4.0,4.0,100.0,,,,,,,,,,,,,,,,,,,,,,,,,,,,,,,,,,,,,,,,,47.855778,4.517261,3.210934,3.413366,2.801636,2.736201,0.344131,0.638041,0.517019,0.41615,25.968779,2.075239,1.019532,0.566382,0.557436,1.0
1709134426.920339,4231.282227,4040.512939,4154.871582,4.0,4.0,4.0,100.0,,,,,,,,,,,,,,,,,,,,,,,,,,,,,,,,,,,,,,,,,94.559814,9.131287,4.130737,3.45704,3.027186,3.376864,0.339933,0.933884,0.626632,0.435031,48.244251,3.159638,1.094259,0.583127,0.560922,1.0
1709134427.045374,4471.282227,4107.179688,4406.666504,4.0,4.0,4.0,100.0,,,,,,,,,,,,,,,,,,,,,,,,,,,,,,,,,,,,,,,,,152.025589,15.252148,5.190459,3.514317,3.369979,4.86761,0.55637,1.34767,0.755262,0.440054,74.509262,4.643551,1.123264,0.661611,0.557621,1.0
1709134427.17041,4314.358887,4104.102539,4258.974121,4.0,4.0,4.0,100.0,100.0,4.0,4.0,4.0,,,,,,,,,,,,,,,,,,,,,,,,,,,,,,,,,,,,,203.966049,21.440039,6.206927,3.61375,3.682742,7.814163,1.109376,1.881258,0.869039,0.430495,96.579544,6.253964,1.09379,0.768463,0.533448,1.0
1709134427.17041,4314.358887,4104.102539,4258.974121,4.0,4.0,4.0,100.0,100.0,4.0,4.0,4.0,,,,,,,,,,,,,,,,,,,,,,,,,,,,,,,,,,,,,203.966049,21.440039,6.206927,3.61375,3.682742,7.814163,1.109376,1.881258,0.869039,0.430495,96.579544,6.253964,1.09379,0.768463,0.533448,1.0
1709134427.295445,4291.794922,4078.974365,4254.871582,4.0,4.0,4.0,100.0,,,,,,,,,,,,,,,,,,,,,,,,,,,,,,,,,,,,,,,,,233.744339,25.753094,7.025827,3.74867,3.869159,12.444845,1.975347,2.484556,0.944326,0.413926,107.421837,7.494669,1.02657,0.86204,0.491047,1.0
1709134427.420481,4245.128418,4063.589844,4199.487305,4.0,4.0,4.0,100.0,,,,,,,,,,,,,,,,,,,,,,,,,,,,,,,,,,,,,,,,,234.937195,26.965839,7.586267,3.883354,3.942467,18.133259,2.965979,3.039453,0.976407,0.404165,105.494949,8.047621,0.978458,0.911067,0.446116,1.0
1709134427.545517,4364.615234,4125.641113,4241.025879,4.0,4.0,4.0,100.0,,,,,,,,,,,,,,,,,,,,,,,,,,,,,,,,,,,,,,,,,212.149399,25.037542,7.855329,3.945066,4.001595,23.495918,3.804698,3.399345,0.976778,0.412727,92.854553,7.844675,0.965992,0.908084,0.418062,1.0
1709134427.670552,4422.563965,4107.692383,4384.102539,4.0,4.0,4.0,100.0,100.0,4.0,4.0,4.0,,,,,,,,,,,,,,,,,,,,,,,,,,,,,,,,,,,,,177.604828,21.122356,7.880713,3.879638,4.132583,26.666281,4.216082,3.450672,0.962976,0.442338,76.831848,7.065596,0.9833,0.868676,0.419666,1.0
1709134427.670552,4422.563965,4107.692383,4384.102539,4.0,4.0,4.0,100.0,100.0,4.0,4.0,4.0,,,,,,,,,,,,,,,,,,,,,,,,,,,,,,,,,,,,,177.604828,21.122356,7.880713,3.879638,4.132583,26.666281,4.216082,3.450672,0.962976,0.442338,76.831848,7.065596,0.9833,0.868676,0.419666,1.0
1709134427.795588,4200.512695,4125.128418,4269.743652,4.0,4.0,4.0,100.0,,,,,,,,,,,,,,,,,,,,,,,,,,,,,,,,,,,,,,,,,144.635376,17.398262,7.776666,3.697627,4.349299,26.478579,4.086403,3.169708,0.951383,0.484543,62.776569,6.29882,1.007394,0.824676,0.450043,1.0
1709134427.920623,4261.538574,4109.743652,4212.307617,4.0,4.0,4.0,100.0,,,,,,,,,,,,,,,,,,,,,,,,,,,,,,,,,,,,,,,,,121.184044,15.450078,7.69519,3.521931,4.653475,22.897474,3.508113,2.630761,0.95501,0.526979,53.673687,6.010542,1.009755,0.804831,0.498184,1.0
1709134428.045659,4232.820313,4091.794922,4218.461426,4.0,4.0,4.0,100.0,,,,,,,,,,,,,,,,,,,,,,,,,,,,,,,,,,,,,,,,,108.410179,16.013367,7.806175,3.494955,5.061257,17.153824,2.744789,1.979469,0.980165,0.564587,48.493046,6.563525,1.00619,0.816447,0.554419,1.0
1709134428.170694,4250.256348,4103.589844,4248.717773,4.0,4.0,4.0,100.0,100.0,4.0,4.0,4.0,,,,,,,,,,,,,,,,,,,,,,,,,,,,,,,,,,,,,103.514687,18.756567,8.163674,3.685395,5.587467,11.146027,2.078909,1.372463,1.023331,0.600871,45.068413,7.989426,1.037115,0.848233,0.618,-1.0
1709134428.170694,4250.256348,4103.589844,4248.717773,4.0,4.0,4.0,100.0,100.0,4.0,4.0,4.0,,,,,,,,,,,,,,,,,,,,,,,,,,,,,,,,,,,,,103.514687,18.756567,8.163674,3.685395,5.587467,11.146027,2.078909,1.372463,1.023331,0.600871,45.068413,7.989426,1.037115,0.848233,0.618,-1.0
1709134428.29573,4250.256348,4093.333252,4243.077148,4.0,4.0,4.0,100.0,,,,,,,,,,,,,,,,,,,,,,,,,,,,,,,,,,,,,,,,,103.375374,22.220253,8.619065,4.007149,6.235862,6.493542,1.684061,0.946488,1.072767,0.642219,42.219116,9.752751,1.117447,0.877629,0.694302,-1.0
1709134428.420765,4273.333496,4109.230957,4281.025879,4.0,4.0,4.0,100.0,,,,,,,,,,,,,,,,,,,,,,,,,,,,,,,,,,,,,,,,,106.74765,24.908394,8.910401,4.278948,6.966804,3.857258,1.561339,0.775254,1.105446,0.688297,40.277996,11.168583,1.243542,0.887019,0.785041,-1.0
1709134428.545801,4349.743652,4109.230957,4292.307617,4.0,4.0,4.0,100.0,,,,,,,,,,,,,,,,,,,,,,,,,,,,,,,,,,,,,,,,,110.458153,25.391188,8.777328,4.325416,7.696404,2.890738,1.584987,0.846184,1.100383,0.728545,39.209747,11.4979,1.395531,0.872965,0.8857,-1.0
1709134428.670836,4334.871582,4124.615234,4261.025879,4.0,4.0,4.0,100.0,100.0,4.0,4.0,4.0,,,,,,,,,,,,,,,,,,,,,,,,,,,,,,,,,,,,,111.300972,23.169687,8.090044,4.06924,8.290922,2.787821,1.610299,1.076571,1.048784,0.747027,38.593929,10.580222,1.568289,0.841041,0.985585,-1.0
1709134428.670836,4334.871582,4124.615234,4261.025879,4.0,4.0,4.0,100.0,100.0,4.0,4.0,4.0,,,,,,,,,,,,,,,,,,,,,,,,,,,,,,,,,,,,,111.300972,23.169687,8.090044,4.06924,8.290922,2.787821,1.610299,1.076571,1.048784,0.747027,38.593929,10.580222,1.568289,0.841041,0.985585,-1.0
1709134428.795872,4351.794922,4092.307617,4236.922852,4.0,4.0,4.0,100.0,,,,,,,,,,,,,,,,,,,,,,,,,,,,,,,,,,,,,,,,,104.431213,18.85006,6.84725,3.561694,8.625234,2.96285,1.597967,1.340781,0.951327,0.730829,36.509544,8.783814,1.732429,0.798586,1.070329,-1.0
1709134428.920907,4375.384766,4123.589844,4252.820313,4.0,4.0,4.0,100.0,,,,,,,,,,,,,,,,,,,,,,,,,,,,,,,,,,,,,,,,,87.233505,13.767137,5.261384,2.97476,8.647717,3.744566,1.682188,1.527203,0.824032,0.680718,31.388823,6.849959,1.844698,0.75005,1.127531,-1.0
1709134429.045943,4295.897461,4093.333252,4112.820313,4.0,4.0,4.0,100.0,,,,,,,,,,,,,,,,,,,,,,,,,,,,,,,,,,,,,,,,,62.267811,9.285499,3.711287,2.53629,8.396421,5.816234,1.971768,1.558854,0.693446,0.613182,23.497301,5.418531,1.868951,0.697595,1.151988,-1.0
1709134429.170978,4374.871582,4113.846191,4063.589844,4.0,4.0,4.0,100.0,100.0,4.0,4.0,4.0,,,,,,,,,,,,,,,,,,,,,,,,,,,,,,,,,,,,,37.364719,6.130496,2.528615,2.3706,7.957543,9.465549,2.478487,1.440705,0.585292,0.553159,15.413177,4.652298,1.789544,0.6448,1.146466,-1.0
1709134429.170978,4374.871582,4113.846191,4063.589844,4.0,4.0,4.0,100.0,100.0,4.0,4.0,4.0,,,,,,,,,,,,,,,,,,,,,,,,,,,,,,,,,,,,,37.364719,6.130496,2.528615,2.3706,7.957543,9.465549,2.478487,1.440705,0.585292,0.553159,15.413177,4.652298,1.789544,0.6448,1.146466,-1.0
1709134429.296014,4386.153809,4155.897461,4043.589844,4.0,4.0,4.0,100.0,,,,,,,,,,,,,,,,,,,,,,,,,,,,,,,,,,,,,,,,,19.267721,4.476979,1.822154,2.459388,7.39025,14.236295,3.086843,1.232843,0.51727,0.521846,9.206295,4.440598,1.624255,0.599971,1.12036,-1.0
1709134429.421049,4681.538574,4176.922852,4277.94873,4.0,4.0,4.0,100.0,,,,,,,,,,,,,,,,,,,,,,,,,,,,,,,,,,,,,,,,,9.363107,3.953236,1.474239,2.66612,6.712214,18.782011,3.622099,1.027119,0.491911,0.524809,5.40665,4.506045,1.415055,0.577265,1.087503,-1.0
1709134429.546085,4368.205078,4150.256348,4102.05127,4.0,4.0,4.0,100.0,,,,,,,,,,,,,,,,,,,,,,,,,,,,,,,,,,,,,,,,,6.850932,4.150607,1.281548,2.829973,5.946223,21.783234,3.911727,0.912751,0.497907,0.553833,4.843644,4.669395,1.198046,0.591189,1.059942,-1.0
1709134429.671121,4313.846191,4120.0,4066.666748,4.0,4.0,4.0,100.0,100.0,4.0,4.0,4.0,,,,,,,,,,,,,,,,,,,,,,,,,,,,,,,,,,,,,13.145019,5.287281,1.344185,2.872928,5.194069,22.293465,3.874338,0.937314,0.519966,0.596187,8.698892,4.896814,1.032506,0.654851,1.046934,-1.0
1709134429.671121,4313.846191,4120.0,4066.666748,4.0,4.0,4.0,100.0,100.0,4.0,4.0,4.0,,,,,,,,,,,,,,,,,,,,,,,,,,,,,,,,,,,,,13.145019,5.287281,1.344185,2.872928,5.194069,22.293465,3.874338,0.937314,0.519966,0.596187,8.698892,4.896814,1.032506,0.654851,1.046934,-1.0
1709134429.796156,4209.230957,4177.436035,4059.487061,4.0,4.0,4.0,100.0,,,,,,,,,,,,,,,,,,,,,,,,,,,,,,,,,,,,,,,,,31.699324,7.954318,1.933593,2.855625,4.635863,20.100714,3.586162,1.076262,0.552019,0.642855,18.919947,5.370368,0.999483,0.774864,1.051985,-1.0
1709134429.921192,4319.487305,4082.564209,4131.282227,4.0,4.0,4.0,100.0,,,,,,,,,,,,,,,,,,,,,,,,,,,,,,,,,,,,,,,,,64.487366,12.289042,3.155873,2.866056,4.396842,15.992408,3.280162,1.265118,0.613564,0.690498,35.739586,6.17177,1.140544,0.958098,1.069472,-1.0
1709134430.046227,4316.410156,4147.179688,4174.358887,4.0,4.0,4.0,100.0,,,,,,,,,,,,,,,,,,,,,,,,,,,,,,,,,,,,,,,,,108.19268,17.562052,4.799262,2.981759,4.503755,11.574344,3.175644,1.416606,0.744379,0.74606,57.916931,7.174125,1.436592,1.237732,1.092694,-1.0
1709134430.171263,4235.384766,4165.641113,4128.717773,4.0,4.0,4.0,100.0,91.666664,3.0,4.0,4.0,,,,,,,,,,,,,,,,,,,,,,,,,,,,,,,,,,,,,153.034439,22.184307,6.431886,3.227867,4.903109,8.439288,3.380882,1.486502,0.991837,0.823221,79.775673,7.945437,1.817084,1.648221,1.118601,-1.0
1709134430.171263,4235.384766,4165.641113,4128.717773,4.0,4.0,4.0,100.0,91.666664,3.0,4.0,4.0,,,,,,,,,,,,,,,,,,,,,,,,,,,,,,,,,,,,,153.034439,22.184307,6.431886,3.227867,4.903109,8.439288,3.380882,1.486502,0.991837,0.823221,79.775673,7.945437,1.817084,1.648221,1.118601,-1.0
1709134430.296298,4241.025879,4146.153809,4139.487305,4.0,4.0,4.0,100.0,,,,,,,,,,,,,,,,,,,,,,,,,,,,,,,,,,,,,,,,,186.390671,24.487917,7.67856,3.603741,5.514225,7.298758,3.824808,1.4783,1.36627,0.929865,95.3862,8.038604,2.196409,2.180202,1.146291,-1.0
1709134430.421334,4281.538574,4164.102539,4130.256348,4.0,4.0,4.0,100.0,,,,,,,,,,,,,,,,,,,,,,,,,,,,,,,,,,,,,,,,,201.059372,23.8969,8.344117,4.151476,6.311784,7.865338,4.299675,1.445727,1.822189,1.056824,100.96209,7.445536,2.534713,2.78084,1.175193,-1.0
1709134430.546369,4309.230957,4153.846191,4167.179688,4.0,4.0,4.0,100.0,,,,,,,,,,,,,,,,,,,,,,,,,,,,,,,,,,,,,,,,,197.066483,20.879564,8.519769,4.928091,7.278557,8.853698,4.56914,1.464149,2.256315,1.174411,97.767723,6.404804,2.825824,3.357978,1.198044,-1.0
1709134430.671405,4316.410156,4129.743652,4182.563965,4.0,4.0,4.0,100.0,100.0,4.0,4.0,4.0,,,,,,,,,,,,,,,,,,,,,,,,,,,,,,,,,,,,,181.121323,16.628382,8.451311,5.920608,8.328388,9.233819,4.514853,1.590123,2.544968,1.243732,88.565453,5.255741,3.09266,3.79399,1.201533,-1.0
1709134430.671405,4316.410156,4129.743652,4182.563965,4.0,4.0,4.0,100.0,100.0,4.0,4.0,4.0,,,,,,,,,,,,,,,,,,,,,,,,,,,,,,,,,,,,,181.121323,16.628382,8.451311,5.920608,8.328388,9.233819,4.514853,1.590123,2.544968,1.243732,88.565453,5.255741,3.09266,3.79399,1.201533,-1.0
1709134430.79644,4320.512695,4158.974121,4218.974121,4.0,4.0,4.0,100.0,,,,,,,,,,,,,,,,,,,,,,,,,,,,,,,,,,,,,,,,,161.516068,12.54115,8.316026,7.003363,9.265689,8.755953,4.153193,1.821563,2.602817,1.235148,78.375664,4.333489,3.335081,3.982766,1.177345,-1.0
1709134430.921476,4364.615234,4144.102539,4211.282227,4.0,4.0,4.0,100.0,,,,,,,,,,,,,,,,,,,,,,,,,,,,,,,,,,,,,,,,,143.684097,9.5446,8.106914,7.918749,9.826742,7.728588,3.60832,2.077068,2.423613,1.141421,69.396141,3.8533,3.515126,3.873019,1.124673,-1.0
1709134431.046512,4366.666504,4163.077148,4256.922852,4.0,4.0,4.0,100.0,,,,,,,,,,,,,,,,,,,,,,,,,,,,,,,,,,,,,,,,,127.917992,7.774943,7.658181,8.350188,9.780494,6.495126,3.084018,2.238676,2.086847,0.984952,61.776516,3.814148,3.547693,3.495226,1.053699,-1.0
1709134431.171547,4395.897461,4186.666504,4298.461426,4.0,4.0,4.0,100.0,100.0,4.0,4.0,4.0,,,,,,,,,,,,,,,,,,,,,,,,,,,,,,,,,,,,,110.750664,6.734674,6.794975,8.08549,9.069006,5.277243,2.758774,2.217868,1.716188,0.80679,53.644733,4.035183,3.356403,2.950845,0.979214,-1.0
1709134431.171547,4395.897461,4186.666504,4298.461426,4.0,4.0,4.0,100.0,100.0,4.0,4.0,4.0,,,,,,,,,,,,,,,,,,,,,,,,,,,,,,,,,,,,,110.750664,6.734674,6.794975,8.08549,9.069006,5.277243,2.758774,2.217868,1.716188,0.80679,53.644733,4.035183,3.356403,2.950845,0.979214,-1.0
1709134431.296583,4381.025879,4198.461426,4355.897461,4.0,4.0,4.0,100.0,,,,,,,,,,,,,,,,,,,,,,,,,,,,,,,,,,,,,,,,,89.09948,5.779923,5.48205,7.122789,7.870059,4.309123,2.65795,1.998518,1.419217,0.649454,43.392757,4.24868,2.93798,2.364181,0.913408,-1.0
1709134431.421618,4405.641113,4190.769043,4389.230957,4.0,4.0,4.0,100.0,,,,,,,,,,,,,,,,,,,,,,,,,,,,,,,,,,,,,,,,,63.537647,4.57459,3.964499,5.706179,6.545614,3.551612,2.677363,1.645841,1.241586,0.538165,31.109604,4.256661,2.401691,1.841261,0.862517,-1.0
1709134431.546654,4435.384766,4198.461426,4399.487305,4.0,4.0,4.0,100.0,,,,,,,,,,,,,,,,,,,,,,,,,,,,,,,,,,,,,,,,,38.436768,3.416322,2.650495,4.196525,5.477757,3.158981,2.702266,1.268134,1.158674,0.472567,19.066315,4.125804,1.939341,1.438946,0.82484,-1.0
1709134431.671689,4428.205078,4188.205078,4411.794922,4.0,4.0,4.0,100.0,91.666664,3.0,4.0,4.0,,,,,,,,,,,,,,,,,,,,,,,,,,,,,,,,,,,,,19.295393,2.644151,1.860474,2.929263,4.890597,3.015579,2.664943,0.971516,1.105193,0.431896,9.810016,3.942525,1.730615,1.160952,0.789053,-1.0
1709134431.671689,4428.205078,4188.205078,4411.794922,4.0,4.0,4.0,100.0,91.666664,3.0,4.0,4.0,,,,,,,,,,,,,,,,,,,,,,,,,,,,,,,,,,,,,19.295393,2.644151,1.860474,2.929263,4.890597,3.015579,2.664943,0.971516,1.105193,0.431896,9.810016,3.942525,1.730615,1.160952,0.789053,-1.0
1709134431.796725,4456.922852,4191.794922,4423.077148,4.0,4.0,4.0,100.0,,,,,,,,,,,,,,,,,,,,,,,,,,,,,,,,,,,,,,,,,8.750154,2.256154,1.629312,2.095465,4.769699,3.075887,2.523746,0.794286,1.026027,0.395308,4.600503,3.688753,1.831742,0.985821,0.745879,-1.0
1709134431.92176,4326.153809,4207.692383,4380.0,4.0,4.0,4.0,100.0,,,,,,,,,,,,,,,,,,,,,,,,,,,,,,,,,,,,,,,,,4.715615,2.105792,1.748097,1.704643,4.920474,3.242476,2.279258,0.725356,0.913066,0.359918,2.43195,3.359345,2.122617,0.885956,0.697783,-1.0
1709134432.046796,4307.179688,4174.358887,4379.487305,4.0,4.0,4.0,100.0,,,,,,,,,,,,,,,,,,,,,,,,,,,,,,,,,,,,,,,,,4.291837,2.048209,1.950956,1.655012,5.087201,3.464314,1.97864,0.762091,0.789648,0.335186,2.110894,2.977863,2.399374,0.830125,0.653959,-1.0
1709134432.171831,4776.410156,4202.563965,4611.282227,4.0,4.0,4.0,100.0,100.0,4.0,4.0,4.0,,,,,,,,,,,,,,,,,,,,,,,,,,,,,,,,,,,,,5.365525,2.150842,2.113781,1.843825,5.098652,3.720825,1.68815,0.909248,0.683633,0.333535,2.695821,2.721125,2.497856,0.79292,0.620663,-1.0
1709134432.171831,4776.410156,4202.563965,4611.282227,4.0,4.0,4.0,100.0,100.0,4.0,4.0,4.0,,,,,,,,,,,,,,,,,,,,,,,,,,,,,,,,,,,,,5.365525,2.150842,2.113781,1.843825,5.098652,3.720825,1.68815,0.909248,0.683633,0.333535,2.695821,2.721125,2.497856,0.79292,0.620663,-1.0
1709134432.296867,4341.538574,4197.94873,4422.563965,4.0,4.0,4.0,100.0,,,,,,,,,,,,,,,,,,,,,,,,,,,,,,,,,,,,,,,,,8.350954,2.481391,2.306081,2.203219,4.92476,4.140415,1.492957,1.171013,0.609654,0.36317,4.467613,2.664558,2.43447,0.766609,0.602195,-1.0
1709134432.421903,4277.94873,4169.230957,4362.563965,4.0,4.0,4.0,100.0,,,,,,,,,,,,,,,,,,,,,,,,,,,,,,,,,,,,,,,,,18.169937,3.49713,2.633508,2.696891,4.684378,4.893442,1.440448,1.5461,0.567668,0.421647,9.589191,2.803282,2.342868,0.74731,0.602135,-1.0
1709134432.546938,4327.692383,4186.153809,4383.589844,4.0,4.0,4.0,100.0,,,,,,,,,,,,,,,,,,,,,,,,,,,,,,,,,,,,,,,,,42.271297,5.873644,3.177662,3.286867,4.63637,5.991547,1.549071,1.99248,0.547638,0.497347,20.364456,3.189587,2.381124,0.719576,0.624781,-1.0
1709134432.671974,4289.743652,4216.410156,4350.769043,4.0,4.0,4.0,100.0,100.0,4.0,4.0,4.0,1.0,0.37505,-2.374033,-3.658199,0.752249,1.0,0.321147,0.165641,-0.614416,1.487775,1.0,0.363499,7.899179,2.741799,17.844134,0.389553,1.0,0.320521,-0.175176,-0.350055,0.154358,1.0,0.309886,0.04428,-0.851472,1.824011,1.0,0.471805,4.823847,-33.682138,47.642798,1.0,0.187902,0.504948,0.470512,0.627308,84.316429,9.876564,3.922112,3.906091,5.004272,7.238508,1.779135,2.417083,0.540171,0.57155,37.579605,3.764777,2.616341,0.682946,0.670744,0.0
1709134432.671974,4289.743652,4216.410156,4350.769043,4.0,4.0,4.0,100.0,100.0,4.0,4.0,4.0,1.0,0.37505,-2.374033,-3.658199,0.752249,1.0,0.321147,0.165641,-0.614416,1.487775,1.0,0.363499,7.899179,2.741799,17.844134,0.389553,1.0,0.320521,-0.175176,-0.350055,0.154358,1.0,0.309886,0.04428,-0.851472,1.824011,1.0,0.471805,4.823847,-33.682138,47.642798,1.0,0.187902,0.504948,0.470512,0.627308,84.316429,9.876564,3.922112,3.906091,5.004272,7.238508,1.779135,2.417083,0.540171,0.57155,37.579605,3.764777,2.616341,0.682946,0.670744,0.0
1709134432.797009,4382.05127,4167.692383,4402.05127,4.0,4.0,4.0,100.0,,,,,,,,,,,,,,,,,,,,,,,,,,,,,,,,,,,,,,,,,139.110977,15.035992,4.750641,4.489202,5.836182,8.273164,2.022758,2.709617,0.541792,0.62624,58.12915,4.373056,3.006709,0.664796,0.732689,0.0
1709134432.922045,4321.538574,4195.897461,4406.153809,4.0,4.0,4.0,100.0,,,,,,,,,,,,,,,,,,,,,,,,,,,,,,,,,,,,,,,,,192.752594,20.209957,5.465447,4.981046,6.953731,8.984963,2.164526,2.789628,0.558893,0.650605,76.89679,4.809783,3.399351,0.716683,0.79655,0.0
1709134433.04708,4396.410156,4191.794922,4401.538574,4.0,4.0,4.0,100.0,,,,,,,,,,,,,,,,,,,,,,,,,,,,,,,,,,,,,,,,,228.058136,23.986395,5.880109,5.322247,8.001784,9.366147,2.135127,2.63875,0.597415,0.641939,87.420784,4.959883,3.623075,0.881986,0.848333,0.0
1709134433.172116,4354.871582,4182.05127,4371.282227,4.0,4.0,4.0,100.0,100.0,4.0,4.0,4.0,,,,,,,,,,,,,,,,,,,,,,,,,,,,,,,,,,,,,232.571686,25.238449,5.891613,5.476285,8.612076,9.54305,1.953403,2.300073,0.655449,0.605869,86.697784,4.827247,3.547787,1.160487,0.877878,0.0
1709134433.172116,4354.871582,4182.05127,4371.282227,4.0,4.0,4.0,100.0,100.0,4.0,4.0,4.0,,,,,,,,,,,,,,,,,,,,,,,,,,,,,,,,,,,,,232.571686,25.238449,5.891613,5.476285,8.612076,9.54305,1.953403,2.300073,0.655449,0.605869,86.697784,4.827247,3.547787,1.160487,0.877878,0.0
1709134433.297151,4358.974121,4174.358887,4353.846191,4.0,4.0,4.0,100.0,,,,,,,,,,,,,,,,,,,,,,,,,,,,,,,,,,,,,,,,,204.536331,23.560055,5.525014,5.441966,8.562068,9.564004,1.711482,1.859954,0.713928,0.550272,74.315063,4.521052,3.162822,1.485593,0.876168,0.0
1709134433.422187,4306.666504,4163.077148,4328.717773,4.0,4.0,4.0,100.0,,,,,,,,,,,,,,,,,,,,,,,,,,,,,,,,,,,,,,,,,153.553589,19.523119,4.944031,5.243215,7.850507,9.39446,1.512882,1.424901,0.749454,0.483288,54.937504,4.16922,2.592555,1.756399,0.842317,0.0
1709134433.547223,4274.871582,4175.384766,4341.538574,4.0,4.0,4.0,100.0,,,,,,,,,,,,,,,,,,,,,,,,,,,,,,,,,,,,,,,,,96.641014,14.467525,4.367955,4.935916,6.690945,8.885059,1.450942,1.09365,0.745221,0.412399,34.697544,3.909771,2.031964,1.887347,0.783959,0.0
1709134433.672258,4301.538574,4144.615234,4363.077148,4.0,4.0,4.0,100.0,100.0,4.0,4.0,4.0,,,,,,,,,,,,,,,,,,,,,,,,,,,,,,,,,,,,,49.221966,9.75071,3.956357,4.575384,5.3975,7.847401,1.611402,0.923349,0.705455,0.344563,18.604666,3.776224,1.639973,1.849474,0.716629,0.0
1709134433.672258,4301.538574,4144.615234,4363.077148,4.0,4.0,4.0,100.0,100.0,4.0,4.0,4.0,,,,,,,,,,,,,,,,,,,,,,,,,,,,,,,,,,,,,49.221966,9.75071,3.956357,4.575384,5.3975,7.847401,1.611402,0.923349,0.705455,0.344563,18.604666,3.776224,1.639973,1.849474,0.716629,0.0
1709134433.797294,4325.128418,4140.0,4343.077148,4.0,4.0,4.0,100.0,,,,,,,,,,,,,,,,,,,,,,,,,,,,,,,,,,,,,,,,,20.211349,6.334557,3.787702,4.192583,4.250679,6.401671,1.996274,0.917622,0.649893,0.285175,9.156567,3.780046,1.487679,1.682521,0.658604,0.0
1709134433.922329,4420.512695,4286.666504,4461.538574,4.0,4.0,4.0,100.0,,,,,,,,,,,,,,,,,,,,,,,,,,,,,,,,,,,,,,,,,7.834547,4.455551,3.846952,3.80252,3.404767,5.111196,2.582344,1.013697,0.608686,0.240134,5.051848,3.911284,1.539192,1.475491,0.62807,0.0
1709134434.047365,4426.153809,4291.282227,4485.128418,4.0,4.0,4.0,100.0,,,,,,,,,,,,,,,,,,,,,,,,,,,,,,,,,,,,,,,,,5.044762,3.685855,4.045084,3.438762,2.868633,5.102552,3.275202,1.129528,0.609635,0.219141,3.993606,4.074733,1.698663,1.325798,0.640132,0.0
1709134434.1724,4348.205078,4248.205078,4454.871582,4.0,4.0,4.0,100.0,100.0,4.0,4.0,4.0,,,,,,,,,,,,,,,,,,,,,,,,,,,,,,,,,,,,,4.700465,3.435352,4.308707,3.149199,2.572401,7.172591,3.96021,1.21484,0.664062,0.237028,4.240537,4.169941,1.915702,1.290553,0.703388,0.0
1709134436.172969,4296.410156,4117.94873,4333.846191,4.0,4.0,4.0,100.0,75.0,3.0,4.0,4.0,,,,,,,,,,,,,,,,,,,,,,,,,,,,,,,,,,,,,207.993896,37.84267,3.501429,4.618482,5.118846,19.667442,3.27611,1.316479,1.235448,0.597729,84.455399,14.559228,1.666888,1.091241,1.225014,1.0
1709134436.298004,4330.769043,4126.153809,4377.94873,4.0,4.0,4.0,100.0,,,,,,,,,,,,,,,,,,,,,,,,,,,,,,,,,,,,,,,,,165.76033,30.505007,3.530921,4.527019,5.749565,23.486359,3.269896,1.341948,1.20669,0.627907,68.297165,10.803767,1.745655,1.105582,1.295071,1.0
1709134436.42304,4313.846191,4205.128418,4361.538574,4.0,4.0,4.0,100.0,,,,,,,,,,,,,,,,,,,,,,,,,,,,,,,,,,,,,,,,,129.792923,23.526857,3.681027,4.640776,6.381921,24.646326,3.202536,1.289935,1.124802,0.64108,54.900051,7.191996,1.842901,1.112365,1.365728,1.0
1709134436.548075,4378.974121,4135.897461,4354.358887,4.0,4.0,4.0,100.0,,,,,,,,,,,,,,,,,,,,,,,,,,,,,,,,,,,,,,,,,104.66259,18.282602,3.851002,4.998098,6.967954,22.810102,2.977831,1.203664,0.988831,0.631201,45.201828,4.488561,2.006145,1.088117,1.420397,1.0
1709134436.673111,4380.0,4174.358887,4380.512695,4.0,4.0,4.0,100.0,100.0,4.0,4.0,4.0,,,,,,,,,,,,,,,,,,,,,,,,,,,,,,,,,,,,,89.499092,14.890457,3.893912,5.482346,7.439887,18.758366,2.605303,1.124628,0.812869,0.599844,38.79351,2.950281,2.249067,1.018603,1.458654,1.0
1709134436.673111,4380.0,4174.358887,4380.512695,4.0,4.0,4.0,100.0,100.0,4.0,4.0,4.0,,,,,,,,,,,,,,,,,,,,,,,,,,,,,,,,,,,,,89.499092,14.890457,3.893912,5.482346,7.439887,18.758366,2.605303,1.124628,0.812869,0.599844,38.79351,2.950281,2.249067,1.018603,1.458654,1.0
1709134436.798146,4368.717773,4161.025879,4336.922852,4.0,4.0,4.0,100.0,,,,,,,,,,,,,,,,,,,,,,,,,,,,,,,,,,,,,,,,,75.679459,12.326715,3.70559,5.865969,7.721537,14.061736,2.230515,1.070214,0.626843,0.554055,32.450542,2.279419,2.523586,0.90256,1.493142,1.0
1709134436.923182,4409.743652,4189.230957,4386.153809,4.0,4.0,4.0,100.0,,,,,,,,,,,,,,,,,,,,,,,,,,,,,,,,,,,,,,,,,58.674011,9.707483,3.285934,5.932893,7.73588,10.482368,2.051173,1.045558,0.467321,0.502553,25.098894,2.08352,2.728341,0.761436,1.536262,1.0
1709134437.048217,4408.717773,4176.922852,4403.077148,4.0,4.0,4.0,100.0,,,,,,,,,,,,,,,,,,,,,,,,,,,,,,,,,,,,,,,,,39.048882,7.063684,2.752707,5.611309,7.438356,8.729164,2.245822,1.098596,0.365736,0.454815,17.29734,2.131646,2.794229,0.627656,1.58187,1.0
1709134437.173253,4422.05127,4163.589844,4362.05127,4.0,4.0,4.0,100.0,100.0,4.0,4.0,4.0,,,,,,,,,,,,,,,,,,,,,,,,,,,,,,,,,,,,,21.730354,4.635032,2.257363,5.022634,6.859193,8.736857,2.868396,1.286746,0.336858,0.419611,10.760916,2.303643,2.701497,0.524686,1.599471,1.0
1709134437.173253,4422.05127,4163.589844,4362.05127,4.0,4.0,4.0,100.0,100.0,4.0,4.0,4.0,,,,,,,,,,,,,,,,,,,,,,,,,,,,,,,,,,,,,21.730354,4.635032,2.257363,5.022634,6.859193,8.736857,2.868396,1.286746,0.336858,0.419611,10.760916,2.303643,2.701497,0.524686,1.599471,1.0
1709134437.298289,4380.0,4166.666504,4342.563965,4.0,4.0,4.0,100.0,,,,,,,,,,,,,,,,,,,,,,,,,,,,,,,,,,,,,,,,,9.871041,2.88308,1.874652,4.442063,6.070475,9.448668,3.805744,1.622073,0.364532,0.401987,6.310059,2.536906,2.475416,0.454543,1.551731,1.0
1709134437.423324,4352.820313,4177.436035,4331.794922,4.0,4.0,4.0,100.0,,,,,,,,,,,,,,,,,,,,,,,,,,,,,,,,,,,,,,,,,3.82124,1.887628,1.589445,4.163455,5.201592,9.954543,4.804959,2.048715,0.416197,0.401709,3.911435,2.722377,2.18639,0.412022,1.421668,1.0
1709134437.54836,4392.307617,4166.153809,4283.077148,4.0,4.0,4.0,100.0,,,,,,,,,,,,,,,,,,,,,,,,,,,,,,,,,,,,,,,,,1.727336,1.457079,1.366729,4.356354,4.437665,9.636708,5.545339,2.465511,0.463518,0.414204,2.796461,2.782022,1.914412,0.394261,1.228899,1.0
1709134437.673395,4509.230957,4232.307617,4358.974121,4.0,4.0,4.0,100.0,100.0,4.0,4.0,4.0,,,,,,,,,,,,,,,,,,,,,,,,,,,,,,,,,,,,,1.266789,1.33973,1.147645,4.978247,3.932669,8.576252,5.764925,2.736321,0.500296,0.431973,2.347898,2.710953,1.714073,0.415334,1.01763,1.0
1709134437.673395,4509.230957,4232.307617,4358.974121,4.0,4.0,4.0,100.0,100.0,4.0,4.0,4.0,,,,,,,,,,,,,,,,,,,,,,,,,,,,,,,,,,,,,1.266789,1.33973,1.147645,4.978247,3.932669,8.576252,5.764925,2.736321,0.500296,0.431973,2.347898,2.710953,1.714073,0.415334,1.01763,1.0
1709134437.798431,4570.256348,4255.384766,4452.307617,4.0,4.0,4.0,100.0,,,,,,,,,,,,,,,,,,,,,,,,,,,,,,,,,,,,,,,,,1.54159,1.405795,0.939461,5.80479,3.747941,7.013279,5.387151,2.76713,0.538085,0.448077,2.345896,2.587418,1.581197,0.499524,0.830181,1.0
1709134437.923466,4600.0,4246.666504,4475.384766,4.0,4.0,4.0,100.0,,,,,,,,,,,,,,,,,,,,,,,,,,,,,,,,,,,,,,,,,2.640402,1.684859,0.821036,6.564004,3.832186,5.542462,4.564515,2.541541,0.601065,0.462997,2.690157,2.531223,1.497079,0.660126,0.694458,1.0
1709134438.048502,4444.102539,4220.0,4348.205078,4.0,4.0,4.0,100.0,,,,,,,,,,,,,,,,,,,,,,,,,,,,,,,,,,,,,,,,,6.540205,2.587655,1.03488,7.066057,4.029834,4.284575,3.5873,2.123708,0.712668,0.48912,4.156016,2.737123,1.433207,0.884543,0.621719,1.0
1709134438.173537,4418.461426,4203.077148,4261.025879,4.0,4.0,4.0,100.0,100.0,4.0,4.0,4.0,,,,,,,,,,,,,,,,,,,,,,,,,,,,,,,,,,,,,20.461306,4.963285,1.938982,7.26242,4.186208,3.481708,2.767791,1.668051,0.879951,0.54375,9.496743,3.50191,1.446586,1.138813,0.612246,1.0
1709134438.173537,4418.461426,4203.077148,4261.025879,4.0,4.0,4.0,100.0,100.0,4.0,4.0,4.0,,,,,,,,,,,,,,,,,,,,,,,,,,,,,,,,,,,,,20.461306,4.963285,1.938982,7.26242,4.186208,3.481708,2.767791,1.668051,0.879951,0.54375,9.496743,3.50191,1.446586,1.138813,0.612246,1.0
1709134438.298573,4361.025879,4172.307617,4253.333496,4.0,4.0,4.0,100.0,,,,,,,,,,,,,,,,,,,,,,,,,,,,,,,,,,,,,,,,,52.397072,9.482786,3.691532,7.218646,4.218057,2.909162,2.290973,1.311501,1.085926,0.636698,21.330511,5.044758,1.649284,1.38358,0.65986,1.0
1709134438.423608,4381.025879,4135.897461,4294.358887,4.0,4.0,4.0,100.0,,,,,,,,,,,,,,,,,,,,,,,,,,,,,,,,,,,,,,,,,103.015038,16.016731,6.081265,7.025902,4.112526,2.667088,2.181679,1.117105,1.286783,0.765371,39.924984,7.305799,2.121817,1.595249,0.751505,1.0
1709134438.548644,4552.307617,4192.307617,4410.769043,4.0,4.0,4.0,100.0,,,,,,,,,,,,,,,,,,,,,,,,,,,,,,,,,,,,,,,,,164.272766,23.357416,8.587434,6.763091,3.911459,3.133321,2.387264,1.082268,1.426422,0.916967,61.854511,9.907277,2.832709,1.764205,0.864497,1.0
1709134438.673679,4334.871582,4176.410156,4329.743652,4.0,4.0,4.0,100.0,100.0,4.0,4.0,4.0,,,,,,,,,,,,,,,,,,,,,,,,,,,,,,,,,,,,,219.78685,29.173473,10.491728,6.496486,3.678159,4.925256,2.802705,1.139035,1.460864,1.07319,81.210808,12.074823,3.588445,1.891601,0.970279,1.0
1709134438.673679,4334.871582,4176.410156,4329.743652,4.0,4.0,4.0,100.0,100.0,4.0,4.0,4.0,,,,,,,,,,,,,,,,,,,,,,,,,,,,,,,,,,,,,219.78685,29.173473,10.491728,6.496486,3.678159,4.925256,2.802705,1.139035,1.460864,1.07319,81.210808,12.074823,3.588445,1.891601,0.970279,1.0
1709134438.798715,4231.794922,4150.769043,4260.512695,4.0,4.0,4.0,100.0,,,,,,,,,,,,,,,,,,,,,,,,,,,,,,,,,,,,,,,,,253.679062,31.647552,11.165234,6.342868,3.477857,8.285119,3.306925,1.195218,1.374734,1.215,92.174889,13.152939,4.113653,1.976642,1.047962,1.0
1709134438.923751,4280.512695,4157.94873,4248.205078,4.0,4.0,4.0,100.0,,,,,,,,,,,,,,,,,,,,,,,,,,,,,,,,,,,,,,,,,258.897766,30.525383,10.509676,6.47596,3.366735,12.784525,3.792813,1.181582,1.191487,1.324005,92.639984,12.907908,4.213203,2.017559,1.091768,1.0
1709134439.048786,4276.410156,4132.307617,4269.743652,4.0,4.0,4.0,100.0,,,,,,,,,,,,,,,,,,,,,,,,,,,,,,,,,,,,,,,,,238.437225,26.869022,8.947892,6.993515,3.384249,17.282858,4.148705,1.076305,0.963459,1.383703,84.311806,11.547745,3.847997,2.009439,1.10825,1.0
1709134439.173822,4283.077148,4230.769043,4261.538574,4.0,4.0,4.0,100.0,100.0,4.0,4.0,4.0,,,,,,,,,,,,,,,,,,,,,,,,,,,,,,,,,,,,,204.373459,22.384462,7.217548,7.817292,3.528459,20.249464,4.253586,0.90234,0.750824,1.380183,71.983932,9.532586,3.183633,1.947466,1.106492,1.0
1709134439.173822,4283.077148,4230.769043,4261.538574,4.0,4.0,4.0,100.0,100.0,4.0,4.0,4.0,,,,,,,,,,,,,,,,,,,,,,,,,,,,,,,,,,,,,204.373459,22.384462,7.217548,7.817292,3.528459,20.249464,4.253586,0.90234,0.750824,1.380183,71.983932,9.532586,3.183633,1.947466,1.106492,1.0
1709134439.298857,4315.897461,4147.179688,4292.307617,4.0,4.0,4.0,100.0,,,,,,,,,,,,,,,,,,,,,,,,,,,,,,,,,,,,,,,,,168.87291,18.523129,5.983547,8.65941,3.734906,20.836094,4.051587,0.714254,0.600283,1.308772,59.952511,7.393845,2.488874,1.82535,1.090631,1.0
1709134439.423893,4370.256348,4133.846191,4289.743652,4.0,4.0,4.0,100.0,,,,,,,,,,,,,,,,,,,,,,,,,,,,,,,,,,,,,,,,,140.202637,15.793604,5.486563,9.164108,3.895191,19.128872,3.698735,0.565665,0.531365,1.179953,50.784428,5.522244,1.953281,1.644918,1.059354,1.0
1709134439.548928,4371.794922,4154.871582,4294.871582,4.0,4.0,4.0,100.0,,,,,,,,,,,,,,,,,,,,,,,,,,,,,,,,,,,,,,,,,118.274536,13.849345,5.568167,9.098945,3.914893,16.499147,3.430835,0.48123,0.535926,1.02073,43.950035,4.151665,1.65392,1.418733,1.010899,1.0
1709134439.673964,4336.410156,4171.794922,4302.05127,4.0,4.0,4.0,100.0,100.0,4.0,4.0,4.0,,,,,,,,,,,,,,,,,,,,,,,,,,,,,,,,,,,,,97.983498,11.93665,5.786797,8.411358,3.747494,14.558936,3.419257,0.45931,0.583067,0.866251,37.42522,3.308255,1.544702,1.165968,0.952013,1.0
1709134439.673964,4336.410156,4171.794922,4302.05127,4.0,4.0,4.0,100.0,100.0,4.0,4.0,4.0,,,,,,,,,,,,,,,,,,,,,,,,,,,,,,,,,,,,,97.983498,11.93665,5.786797,8.411358,3.747494,14.558936,3.419257,0.45931,0.583067,0.866251,37.42522,3.308255,1.544702,1.165968,0.952013,1.0
1709134439.798999,4344.102539,4170.769043,4312.820313,4.0,4.0,4.0,100.0,,,,,,,,,,,,,,,,,,,,,,,,,,,,,,,,,,,,,,,,,74.548752,9.506177,5.689497,7.281542,3.425239,14.362786,3.672972,0.472883,0.637997,0.745695,29.520823,2.837913,1.509056,0.911532,0.896125,1.0
1709134439.924035,4362.05127,4148.205078,4309.230957,4.0,4.0,4.0,100.0,,,,,,,,,,,,,,,,,,,,,,,,,,,,,,,,,,,,,,,,,48.990726,6.748095,5.139917,6.145747,3.051086,15.823398,4.042853,0.493613,0.677612,0.670383,20.516384,2.595781,1.470762,0.690658,0.854225,1.0
1709134440.04907,4323.077148,4161.025879,4341.025879,4.0,4.0,4.0,100.0,,,,,,,,,,,,,,,,,,,,,,,,,,,,,,,,,,,,,,,,,26.377193,4.518284,4.277372,5.467847,2.727019,18.033016,4.315478,0.512069,0.687722,0.635846,12.030986,2.574821,1.417767,0.532393,0.82877,1.0
1709134440.174106,4354.358887,4140.512695,4318.461426,4.0,4.0,4.0,100.0,100.0,4.0,4.0,4.0,,,,,,,,,,,,,,,,,,,,,,,,,,,,,,,,,,,,,11.546136,3.177485,3.334404,5.442756,2.503587,19.170269,4.30762,0.526969,0.662277,0.631405,6.159772,2.698455,1.353382,0.444158,0.811915,1.0
1709134440.174106,4354.358887,4140.512695,4318.461426,4.0,4.0,4.0,100.0,100.0,4.0,4.0,4.0,,,,,,,,,,,,,,,,,,,,,,,,,,,,,,,,,,,,,11.546136,3.177485,3.334404,5.442756,2.503587,19.170269,4.30762,0.526969,0.662277,0.631405,6.159772,2.698455,1.353382,0.444158,0.811915,1.0
1709134440.299142,4363.077148,4167.179688,4314.358887,4.0,4.0,4.0,100.0,,,,,,,,,,,,,,,,,,,,,,,,,,,,,,,,,,,,,,,,,4.47835,2.654727,2.521578,5.886936,2.379071,18.201845,3.959435,0.540556,0.604879,0.653065,3.170782,2.861,1.274445,0.416412,0.793267,0.0
1709134440.424177,4303.589844,4143.077148,4227.179688,4.0,4.0,4.0,100.0,,,,,,,,,,,,,,,,,,,,,,,,,,,,,,,,,,,,,,,,,2.3825,2.609222,1.93783,6.397752,2.320609,15.020004,3.382015,0.556267,0.528122,0.703674,2.167632,2.995949,1.176817,0.419096,0.766549,0.0
1709134440.549213,4286.666504,4151.282227,4156.410156,4.0,4.0,4.0,100.0,,,,,,,,,,,,,,,,,,,,,,,,,,,,,,,,,,,,,,,,,2.057751,2.692425,1.564129,6.605917,2.325565,10.636739,2.741015,0.575356,0.449187,0.780948,2.170382,3.095609,1.069691,0.425125,0.735174,0.0
1709134440.674248,4310.769043,4135.384766,4166.666504,4.0,4.0,4.0,100.0,100.0,4.0,4.0,4.0,,,,,,,,,,,,,,,,,,,,,,,,,,,,,,,,,,,,,2.281078,2.793651,1.33656,6.370795,2.422458,6.474803,2.179783,0.592995,0.381367,0.869127,2.844613,3.166431,0.991918,0.42263,0.710531,0.0
1709134440.674248,4310.769043,4135.384766,4166.666504,4.0,4.0,4.0,100.0,100.0,4.0,4.0,4.0,,,,,,,,,,,,,,,,,,,,,,,,,,,,,,,,,,,,,2.281078,2.793651,1.33656,6.370795,2.422458,6.474803,2.179783,0.592995,0.381367,0.869127,2.844613,3.166431,0.991918,0.42263,0.710531,0.0
1709134440.799284,4646.153809,4173.333496,4487.179688,4.0,4.0,4.0,100.0,,,,,,,,,,,,,,,,,,,,,,,,,,,,,,,,,,,,,,,,,3.346506,2.8565,1.254424,5.709622,2.618367,3.675125,1.763454,0.603028,0.328761,0.940209,4.038731,3.187552,0.997358,0.411629,0.702649,0.0
1709134440.924319,4363.589844,4134.871582,4307.179688,4.0,4.0,4.0,100.0,,,,,,,,,,,,,,,,,,,,,,,,,,,,,,,,,,,,,,,,,6.466611,2.939669,1.402996,4.794236,2.892094,2.501685,1.493314,0.607379,0.28742,0.967348,6.080841,3.141858,1.128014,0.39534,0.714833,0.0
1709134441.049355,4340.0,4105.128418,4237.436035,4.0,4.0,4.0,100.0,,,,,,,,,,,,,,,,,,,,,,,,,,,,,,,,,,,,,,,,,16.696259,3.856165,1.950526,3.919482,3.191511,2.552205,1.361399,0.606822,0.25423,0.940073,11.085958,3.244766,1.370373,0.382429,0.749138,0.0
1709134441.17439,4375.384766,4176.922852,4252.820313,4.0,4.0,4.0,100.0,100.0,4.0,4.0,4.0,,,,,,,,,,,,,,,,,,,,,,,,,,,,,,,,,,,,,40.423328,6.689877,3.004821,3.342814,3.457915,3.12118,1.381014,0.606157,0.234113,0.871844,21.911674,3.850738,1.673382,0.389523,0.80926,0.0
1709134441.17439,4375.384766,4176.922852,4252.820313,4.0,4.0,4.0,100.0,100.0,4.0,4.0,4.0,,,,,,,,,,,,,,,,,,,,,,,,,,,,,,,,,,,,,40.423328,6.689877,3.004821,3.342814,3.457915,3.12118,1.381014,0.606157,0.234113,0.871844,21.911674,3.850738,1.673382,0.389523,0.80926,0.0
1709134441.299426,4945.128418,4100.0,4172.820313,4.0,4.0,4.0,100.0,,,,,,,,,,,,,,,,,,,,,,,,,,,,,,,,,,,,,,,,,80.17614,11.936532,4.459486,3.161179,3.659562,3.69637,1.560638,0.602628,0.236325,0.790755,39.67667,5.164015,1.966671,0.431468,0.892312,0.0
1709134441.424461,7258.461426,4084.615479,4172.820313,4.0,4.0,4.0,100.0,,,,,,,,,,,,,,,,,,,,,,,,,,,,,,,,,,,,,,,,,131.675171,18.644804,6.126765,3.313971,3.795786,4.067169,1.899353,0.600065,0.267224,0.722245,61.836296,7.02946,2.184144,0.51541,0.983774,0.0
1709134441.549497,6250.256348,4112.307617,4276.922852,4.0,4.0,4.0,100.0,,,,,,,,,,,,,,,,,,,,,,,,,,,,,,,,,,,,,,,,,196.366272,27.47979,7.903034,3.66351,3.886464,4.328114,2.345093,0.632271,0.33171,0.678753,82.749863,8.88556,2.29703,0.643718,1.063462,0.0
1709134441.674533,5076.922852,4167.179688,4310.769043,4.0,4.0,4.0,100.0,66.666664,0.0,4.0,4.0,,,,,,,,,,,,,,,,,,,,,,,,,,,,,,,,,,,,,303.418884,41.046391,9.844237,4.134456,3.970449,4.87464,2.827249,0.746494,0.427016,0.658192,96.73436,10.058074,2.313412,0.807886,1.11223,0.0
1709134441.674533,5076.922852,4167.179688,4310.769043,4.0,4.0,4.0,100.0,66.666664,0.0,4.0,4.0,,,,,,,,,,,,,,,,,,,,,,,,,,,,,,,,,,,,,303.418884,41.046391,9.844237,4.134456,3.970449,4.87464,2.827249,0.746494,0.427016,0.658192,96.73436,10.058074,2.313412,0.807886,1.11223,0.0
1709134441.799568,4261.538574,4201.538574,4483.077148,4.0,4.0,4.0,100.0,,,,,,,,,,,,,,,,,,,,,,,,,,,,,,,,,,,,,,,,,548.844727,61.844334,11.844818,4.710424,4.100389,5.954563,3.298288,0.970739,0.539173,0.653726,98.91362,10.008753,2.260881,0.989314,1.123561,0.0
1709134441.924604,3757.435791,4186.666504,4361.025879,4.0,4.0,4.0,100.0,,,,,,,,,,,,,,,,,,,,,,,,,,,,,,,,,,,,,,,,,922.889893,90.767075,13.859724,5.359102,4.341411,7.701972,3.757432,1.312759,0.653777,0.670065,89.637108,8.757064,2.18862,1.164762,1.119561,0.0
1709134442.049639,3639.487061,4182.563965,4289.743652,4.0,4.0,4.0,100.0,,,,,,,,,,,,,,,,,,,,,,,,,,,,,,,,,,,,,,,,,1374.638794,124.508965,15.86166,6.007989,4.762844,10.021894,4.182324,1.73576,0.773451,0.721843,75.65921,6.945289,2.144987,1.313292,1.140032,0.0
1709134442.174675,3623.589844,4183.589844,4282.563965,4.0,4.0,4.0,100.0,58.333332,0.0,4.0,4.0,,,,,,,,,,,,,,,,,,,,,,,,,,,,,,,,,,,,,1780.387573,155.526627,17.776726,6.533043,5.380496,12.51715,4.510999,2.170238,0.907106,0.81553,65.378403,5.331283,2.154891,1.420343,1.214341,0.0
1709134442.174675,3623.589844,4183.589844,4282.563965,4.0,4.0,4.0,100.0,58.333332,0.0,4.0,4.0,,,,,,,,,,,,,,,,,,,,,,,,,,,,,,,,,,,,,1780.387573,155.526627,17.776726,6.533043,5.380496,12.51715,4.510999,2.170238,0.907106,0.81553,65.378403,5.331283,2.154891,1.420343,1.214341,0.0
1709134442.29971,3659.487061,4138.461426,4249.743652,4.0,4.0,4.0,100.0,,,,,,,,,,,,,,,,,,,,,,,,,,,,,,,,,,,,,,,,,2000.506104,174.504837,19.314646,6.826131,6.111209,14.521026,4.646908,2.538954,1.054907,0.934253,64.76474,4.411035,2.220728,1.481565,1.339297,0.0
1709134442.424746,3698.461426,4105.128418,4231.282227,4.0,4.0,4.0,100.0,,,,,,,,,,,,,,,,,,,,,,,,,,,,,,,,,,,,,,,,,1960.890015,174.680069,19.984573,6.83212,6.770751,15.430676,4.491989,2.767322,1.194587,1.038178,73.735405,4.177954,2.313275,1.494772,1.476138,0.0
1709134442.549781,3757.94873,4107.692383,4232.820313,4.0,4.0,4.0,100.0,,,,,,,,,,,,,,,,,,,,,,,,,,,,,,,,,,,,,,,,,1672.314453,154.902847,19.461197,6.539609,7.139517,14.959142,4.013442,2.78672,1.28422,1.081049,86.152092,4.24019,2.366601,1.456733,1.568704,0.0
1709134442.674817,3764.615479,4076.410156,4175.384766,4.0,4.0,4.0,100.0,66.666664,0.0,4.0,4.0,1.0,0.37,-1.612881,-3.661803,0.739452,1.0,0.398487,0.247995,-0.613908,1.485453,1.0,0.218126,6.49337,2.74113,17.824244,0.369051,1.0,0.331179,-0.163946,-0.349845,0.153733,1.0,0.337467,0.1262,-0.850189,1.820208,1.0,0.464826,4.619473,-33.618286,47.537345,1.0,0.30364,0.52532,0.470543,0.627147,1225.801025,120.872375,17.623062,6.018258,7.050572,13.260296,3.33307,2.604912,1.283488,1.036345,94.465431,4.187558,2.314333,1.369623,1.572264,1.0
1709134442.674817,3764.615479,4076.410156,4175.384766,4.0,4.0,4.0,100.0,66.666664,0.0,4.0,4.0,1.0,0.37,-1.612881,-3.661803,0.739452,1.0,0.398487,0.247995,-0.613908,1.485453,1.0,0.218126,6.49337,2.74113,17.824244,0.369051,1.0,0.331179,-0.163946,-0.349845,0.153733,1.0,0.337467,0.1262,-0.850189,1.820208,1.0,0.464826,4.619473,-33.618286,47.537345,1.0,0.30364,0.52532,0.470543,0.627147,1225.801025,120.872375,17.623062,6.018258,7.050572,13.260296,3.33307,2.604912,1.283488,1.036345,94.465431,4.187558,2.314333,1.369623,1.572264,1.0
1709134442.799852,3987.179443,4121.538574,4238.974121,4.0,4.0,4.0,100.0,,,,,,,,,,,,,,,,,,,,,,,,,,,,,,,,,,,,,,,,,772.942627,82.234772,14.791081,5.400645,6.473323,10.854177,2.662549,2.29497,1.173897,0.9141,93.261307,3.786854,2.113273,1.236043,1.474447,1.0
1709134442.924888,3988.205078,4150.256348,4276.922852,4.0,4.0,4.0,100.0,,,,,,,,,,,,,,,,,,,,,,,,,,,,,,,,,,,,,,,,,416.759705,48.348469,11.533485,4.826933,5.538929,8.415121,2.206984,1.958761,0.983759,0.755723,81.001091,3.073108,1.797666,1.06785,1.297274,1.0
1709134443.049924,3947.692383,4168.717773,4290.256348,4.0,4.0,4.0,100.0,,,,,,,,,,,,,,,,,,,,,,,,,,,,,,,,,,,,,,,,,211.033875,25.306372,8.40017,4.422191,4.482985,6.446201,2.064749,1.694826,0.787336,0.613666,61.488041,2.422432,1.445594,0.889451,1.083954,1.0
1709134443.174959,3960.512939,4176.410156,4338.461426,4.0,4.0,4.0,100.0,58.333332,0.0,4.0,4.0,,,,,,,,,,,,,,,,,,,,,,,,,,,,,,,,,,,,,112.257545,12.884747,5.758434,4.362926,3.569666,5.18391,2.166284,1.544756,0.661434,0.524538,41.817684,2.12379,1.138502,0.745396,0.879074,1.0
1709134443.174959,3960.512939,4176.410156,4338.461426,4.0,4.0,4.0,100.0,58.333332,0.0,4.0,4.0,,,,,,,,,,,,,,,,,,,,,,,,,,,,,,,,,,,,,112.257545,12.884747,5.758434,4.362926,3.569666,5.18391,2.166284,1.544756,0.661434,0.524538,41.817684,2.12379,1.138502,0.745396,0.879074,1.0
1709134443.299995,4051.281982,4140.512695,4323.077148,4.0,4.0,4.0,100.0,,,,,,,,,,,,,,,,,,,,,,,,,,,,,,,,,,,,,,,,,67.796234,7.838641,3.847478,4.800481,3.007047,4.590189,2.337646,1.48906,0.643813,0.495181,27.698,2.293219,0.936538,0.684839,0.716855,1.0
1709134443.42503,4099.487305,4192.820313,4353.333496,4.0,4.0,4.0,100.0,,,,,,,,,,,,,,,,,,,,,,,,,,,,,,,,,,,,,,,,,43.702038,7.413914,2.799818,5.717937,2.900141,4.500304,2.403185,1.47145,0.720759,0.506932,21.142979,2.883022,0.866442,0.73326,0.611782,1.0
1709134443.550066,4023.589844,4171.282227,4245.128418,4.0,4.0,4.0,100.0,,,,,,,,,,,,,,,,,,,,,,,,,,,,,,,,,,,,,,,,,40.541527,9.064616,2.537588,6.864798,3.26378,4.637834,2.316706,1.413339,0.829086,0.532085,20.925413,3.690316,0.914875,0.875345,0.559188,1.0
1709134443.675101,4112.820313,4137.436035,4217.94873,4.0,4.0,4.0,100.0,66.666664,0.0,4.0,4.0,,,,,,,,,,,,,,,,,,,,,,,,,,,,,,,,,,,,,57.695339,11.167924,2.810677,7.895207,4.030187,4.695008,2.122803,1.277379,0.890962,0.551004,22.644878,4.456768,1.057857,1.053526,0.546323,1.0
1709134443.675101,4112.820313,4137.436035,4217.94873,4.0,4.0,4.0,100.0,66.666664,0.0,4.0,4.0,,,,,,,,,,,,,,,,,,,,,,,,,,,,,,,,,,,,,57.695339,11.167924,2.810677,7.895207,4.030187,4.695008,2.122803,1.277379,0.890962,0.551004,22.644878,4.456768,1.057857,1.053526,0.546323,1.0
1709134443.800137,4095.897461,4150.769043,4236.410156,4.0,4.0,4.0,100.0,,,,,,,,,,,,,,,,,,,,,,,,,,,,,,,,,,,,,,,,,67.943604,12.598699,3.313223,8.5362,5.052577,4.697943,1.930074,1.127002,0.871828,0.561521,23.147039,4.895513,1.285676,1.203282,0.563435,1.0
1709134443.925172,4227.692383,4151.794922,4376.922852,4.0,4.0,4.0,100.0,,,,,,,,,,,,,,,,,,,,,,,,,,,,,,,,,,,,,,,,,70.176598,12.647704,3.881637,8.674225,6.125565,4.816325,1.838746,1.052639,0.790425,0.571358,22.213428,4.905556,1.593636,1.279785,0.602144,1.0
1709134444.050208,4176.410156,4133.333496,4260.512695,4.0,4.0,4.0,100.0,,,,,,,,,,,,,,,,,,,,,,,,,,,,,,,,,,,,,,,,,65.452934,11.481221,4.340792,8.426957,7.026245,5.099296,1.893543,1.123019,0.701519,0.589333,20.172682,4.641641,1.935856,1.272533,0.659655,1.0
1709134444.175243,4165.641113,4140.512695,4276.410156,4.0,4.0,4.0,100.0,100.0,4.0,4.0,4.0,,,,,,,,,,,,,,,,,,,,,,,,,,,,,,,,,,,,,53.556946,9.814931,4.583134,8.030399,7.596604,5.468707,2.05248,1.338207,0.658076,0.617058,17.866043,4.330367,2.233552,1.204925,0.743606,1.0
1709134447.176096,3886.666748,4155.384766,4264.102539,4.0,4.0,4.0,100.0,91.666664,3.0,4.0,4.0,,,,,,,,,,,,,,,,,,,,,,,,,,,,,,,,,,,,,65.353638,16.762133,5.488664,6.261228,7.160789,7.084643,1.629982,3.147935,0.937252,1.363836,17.56093,4.179976,4.506559,1.248731,1.664473,1.0
1709134447.301132,3983.076904,4124.102539,4172.307617,4.0,4.0,4.0,100.0,,,,,,,,,,,,,,,,,,,,,,,,,,,,,,,,,,,,,,,,,58.758251,16.290234,6.57176,6.847355,7.876671,6.016368,1.658939,3.590976,0.879812,1.386934,15.585534,4.898793,5.20189,1.333608,1.72511,1.0
1709134447.426167,4081.025635,4112.820313,4201.538574,4.0,4.0,4.0,100.0,,,,,,,,,,,,,,,,,,,,,,,,,,,,,,,,,,,,,,,,,47.303074,14.402592,7.539621,7.158801,8.627858,5.33761,1.653213,3.771317,0.814298,1.328073,12.304107,5.232764,5.570623,1.420574,1.74595,1.0
1709134447.551203,4252.307617,4138.974121,4218.974121,4.0,4.0,4.0,100.0,,,,,,,,,,,,,,,,,,,,,,,,,,,,,,,,,,,,,,,,,36.023415,12.115118,8.331055,7.314766,9.509241,4.694007,1.607674,3.643767,0.772509,1.224615,8.98663,5.15619,5.530034,1.510923,1.739964,1.0
1709134447.676238,4294.358887,4093.846191,4227.179688,4.0,4.0,4.0,100.0,91.666664,3.0,4.0,4.0,,,,,,,,,,,,,,,,,,,,,,,,,,,,,,,,,,,,,30.502712,10.573655,9.033419,7.671006,10.68755,4.095074,1.550781,3.238158,0.779689,1.119467,6.611258,4.758809,5.134697,1.608397,1.730985,1.0
1709134447.676238,4294.358887,4093.846191,4227.179688,4.0,4.0,4.0,100.0,91.666664,3.0,4.0,4.0,,,,,,,,,,,,,,,,,,,,,,,,,,,,,,,,,,,,,30.502712,10.573655,9.033419,7.671006,10.68755,4.095074,1.550781,3.238158,0.779689,1.119467,6.611258,4.758809,5.134697,1.608397,1.730985,1.0
1709134447.801274,4340.512695,4098.974121,4233.846191,4.0,4.0,4.0,100.0,,,,,,,,,,,,,,,,,,,,,,,,,,,,,,,,,,,,,,,,,33.582287,10.31916,9.755183,8.57088,12.220575,3.66554,1.568656,2.705897,0.84728,1.044026,5.797891,4.189068,4.520624,1.721258,1.766368,1.0
1709134447.926309,4380.0,4091.281982,4258.974121,4.0,4.0,4.0,100.0,,,,,,,,,,,,,,,,,,,,,,,,,,,,,,,,,,,,,,,,,43.523766,11.164449,10.458948,10.116735,13.931007,3.360426,1.748027,2.304869,0.975598,1.011022,6.206614,3.618794,3.920933,1.872754,1.893705,1.0
1709134448.051345,4350.256348,4115.384766,4298.461426,4.0,4.0,4.0,100.0,,,,,,,,,,,,,,,,,,,,,,,,,,,,,,,,,,,,,,,,,55.371975,12.282941,11.054743,12.119335,15.455523,3.164371,2.117778,2.26804,1.142501,1.014782,7.128771,3.170192,3.53168,2.075161,2.12215,1.0
1709134448.176381,4479.487305,4126.666504,4370.256348,4.0,4.0,4.0,100.0,91.666664,3.0,4.0,4.0,,,,,,,,,,,,,,,,,,,,,,,,,,,,,,,,,,,,,62.820881,12.635319,11.450998,14.089334,16.445484,3.054857,2.61048,2.656133,1.304197,1.039123,7.76947,2.872826,3.435027,2.303988,2.405583,1.0
1709134448.176381,4479.487305,4126.666504,4370.256348,4.0,4.0,4.0,100.0,91.666664,3.0,4.0,4.0,,,,,,,,,,,,,,,,,,,,,,,,,,,,,,,,,,,,,62.820881,12.635319,11.450998,14.089334,16.445484,3.054857,2.61048,2.656133,1.304197,1.039123,7.76947,2.872826,3.435027,2.303988,2.405583,1.0
1709134448.301416,4560.0,4118.461426,4391.794922,4.0,4.0,4.0,100.0,,,,,,,,,,,,,,,,,,,,,,,,,,,,,,,,,,,,,,,,,62.651402,11.679324,11.593417,15.404506,16.71043,2.99769,3.063012,3.302978,1.411992,1.070418,7.738839,2.683671,3.550718,2.502517,2.653893,1.0
1709134448.426452,4680.0,4086.666748,4345.641113,4.0,4.0,4.0,100.0,,,,,,,,,,,,,,,,,,,,,,,,,,,,,,,,,,,,,,,,,53.759277,9.696454,11.580892,15.592136,16.246563,2.985289,3.310342,3.922161,1.425862,1.094241,6.891541,2.541136,3.717303,2.60229,2.765744,1.0
1709134448.551487,4700.0,4149.743652,4391.794922,4.0,4.0,4.0,100.0,,,,,,,,,,,,,,,,,,,,,,,,,,,,,,,,,,,,,,,,,41.130081,7.367512,11.606185,14.566679,15.185725,2.949965,3.282597,4.249399,1.336434,1.094657,5.559085,2.39423,3.785815,2.558066,2.675078,1.0
1709134448.676523,4995.384766,4163.589844,4556.922852,4.0,4.0,4.0,100.0,91.666664,3.0,4.0,4.0,,,,,,,,,,,,,,,,,,,,,,,,,,,,,,,,,,,,,26.274992,5.347657,11.744546,12.603422,13.703201,2.938128,3.037883,4.129919,1.169656,1.05907,4.299109,2.255195,3.661168,2.355196,2.384693,1.0
1709134448.676523,4995.384766,4163.589844,4556.922852,4.0,4.0,4.0,100.0,91.666664,3.0,4.0,4.0,,,,,,,,,,,,,,,,,,,,,,,,,,,,,,,,,,,,,26.274992,5.347657,11.744546,12.603422,13.703201,2.938128,3.037883,4.129919,1.169656,1.05907,4.299109,2.255195,3.661168,2.355196,2.384693,1.0
1709134448.801558,4648.717773,4144.615234,4428.205078,4.0,4.0,4.0,100.0,,,,,,,,,,,,,,,,,,,,,,,,,,,,,,,,,,,,,,,,,15.093537,4.056174,11.826985,10.1912,11.983302,2.949555,2.734934,3.604961,0.975535,0.985106,3.914704,2.12658,3.316077,2.027093,1.969813,1.0
1709134448.926594,4589.743652,4178.974121,4398.974121,4.0,4.0,4.0,100.0,,,,,,,,,,,,,,,,,,,,,,,,,,,,,,,,,,,,,,,,,10.862677,3.879924,11.63425,7.869721,10.201087,3.058797,2.51127,2.859469,0.806147,0.887542,5.909059,2.114743,2.806907,1.641932,1.543967,1.0
1709134449.051629,4464.102539,4167.692383,4364.102539,4.0,4.0,4.0,100.0,,,,,,,,,,,,,,,,,,,,,,,,,,,,,,,,,,,,,,,,,22.509378,5.018877,11.067563,6.031835,8.508166,3.264762,2.421052,2.123084,0.694432,0.793557,13.071664,2.338414,2.228406,1.288225,1.213492,1.0
1709134449.176665,4454.871582,4176.922852,4342.05127,4.0,4.0,4.0,100.0,75.0,1.0,4.0,4.0,,,,,,,,,,,,,,,,,,,,,,,,,,,,,,,,,,,,,56.260334,7.301768,10.201447,4.81078,7.063194,3.608598,2.423793,1.579901,0.64521,0.728176,28.296858,2.855331,1.685372,1.048622,1.039151,1.0
1709134449.176665,4454.871582,4176.922852,4342.05127,4.0,4.0,4.0,100.0,75.0,1.0,4.0,4.0,,,,,,,,,,,,,,,,,,,,,,,,,,,,,,,,,,,,,56.260334,7.301768,10.201447,4.81078,7.063194,3.608598,2.423793,1.579901,0.64521,0.728176,28.296858,2.855331,1.685372,1.048622,1.039151,1.0
1709134449.3017,4359.487305,4164.615234,4308.717773,4.0,4.0,4.0,100.0,,,,,,,,,,,,,,,,,,,,,,,,,,,,,,,,,,,,,,,,,109.355484,10.302687,9.384552,4.211357,6.051145,3.980136,2.402656,1.301303,0.647075,0.703631,51.372559,3.571022,1.256678,0.971132,1.022856,1.0
1709134449.426736,4329.230957,4165.128418,4286.153809,4.0,4.0,4.0,100.0,,,,,,,,,,,,,,,,,,,,,,,,,,,,,,,,,,,,,,,,,173.52742,13.216981,8.868223,4.155458,5.588589,4.203202,2.247707,1.23076,0.676737,0.716515,78.49836,4.219103,0.958259,1.036772,1.120483,1.0
1709134449.551772,4267.692383,4135.897461,4147.692383,4.0,4.0,4.0,100.0,,,,,,,,,,,,,,,,,,,,,,,,,,,,,,,,,,,,,,,,,225.902878,14.923386,8.487566,4.401408,5.592587,4.192092,1.943652,1.250228,0.711782,0.753121,101.644493,4.49628,0.75475,1.17471,1.270215,1.0
1709134449.676807,4305.128418,4142.563965,4195.384766,4.0,4.0,4.0,100.0,91.666664,3.0,4.0,4.0,,,,,,,,,,,,,,,,,,,,,,,,,,,,,,,,,,,,,251.634613,14.697043,7.991311,4.703613,5.779016,3.856502,1.573376,1.286934,0.743244,0.79837,113.781578,4.259438,0.616231,1.3026,1.412831,1.0
1709134449.676807,4305.128418,4142.563965,4195.384766,4.0,4.0,4.0,100.0,91.666664,3.0,4.0,4.0,,,,,,,,,,,,,,,,,,,,,,,,,,,,,,,,,,,,,251.634613,14.697043,7.991311,4.703613,5.779016,3.856502,1.573376,1.286934,0.743244,0.79837,113.781578,4.259438,0.616231,1.3026,1.412831,1.0
1709134449.801843,4328.717773,4142.563965,4216.410156,4.0,4.0,4.0,100.0,,,,,,,,,,,,,,,,,,,,,,,,,,,,,,,,,,,,,,,,,241.685013,12.474682,7.194521,4.918825,5.818253,3.391625,1.242646,1.310754,0.754317,0.840183,110.939163,3.545095,0.534698,1.351772,1.488771,1.0
1709134449.926878,4316.410156,4156.410156,4236.922852,4.0,4.0,4.0,100.0,,,,,,,,,,,,,,,,,,,,,,,,,,,,,,,,,,,,,,,,,199.837189,8.983968,6.08392,5.022703,5.51037,2.946514,1.017238,1.289934,0.730465,0.867502,94.199661,2.573783,0.502205,1.289547,1.454144,1.0
1709134450.051914,4556.410156,4212.820313,4467.179688,4.0,4.0,4.0,100.0,,,,,,,,,,,,,,,,,,,,,,,,,,,,,,,,,,,,,,,,,140.930344,5.351439,4.885953,5.046422,4.869003,2.710755,0.903563,1.206263,0.675078,0.871872,69.574776,1.652349,0.524958,1.130166,1.304476,1.0
1709134450.176949,4209.230957,4178.974121,4267.692383,4.0,4.0,4.0,100.0,91.666664,3.0,4.0,4.0,,,,,,,,,,,,,,,,,,,,,,,,,,,,,,,,,,,,,83.218651,2.555285,3.833489,5.073489,4.079849,2.681945,0.857766,1.075197,0.605174,0.847872,44.51104,0.998994,0.620219,0.93166,1.079561,1.0
1709134450.176949,4209.230957,4178.974121,4267.692383,4.0,4.0,4.0,100.0,91.666664,3.0,4.0,4.0,,,,,,,,,,,,,,,,,,,,,,,,,,,,,,,,,,,,,83.218651,2.555285,3.833489,5.073489,4.079849,2.681945,0.857766,1.075197,0.605174,0.847872,44.51104,0.998994,0.620219,0.93166,1.079561,1.0
1709134450.301985,4164.615234,4118.974121,4195.384766,4.0,4.0,4.0,100.0,,,,,,,,,,,,,,,,,,,,,,,,,,,,,,,,,,,,,,,,,42.980869,1.864721,3.151238,5.184099,3.405711,2.819531,0.832219,0.929883,0.54833,0.792807,26.08136,1.035839,0.763138,0.773483,0.84563,1.0
1709134450.42702,4143.589844,4098.461426,4197.436035,4.0,4.0,4.0,100.0,,,,,,,,,,,,,,,,,,,,,,,,,,,,,,,,,,,,,,,,,27.537455,4.392152,3.029619,5.3513,3.075272,3.027933,0.835492,0.834494,0.530679,0.71096,18.380255,2.233341,0.90981,0.723047,0.667392,0.0
1709134450.552056,4189.230957,4238.461426,4212.820313,4.0,4.0,4.0,100.0,,,,,,,,,,,,,,,,,,,,,,,,,,,,,,,,,,,,,,,,,38.067005,10.294701,3.529509,5.488619,3.197157,3.216652,0.911128,0.850641,0.556638,0.615365,21.863047,4.779205,1.003822,0.804945,0.583879,0.0
1709134450.677091,4221.025879,4081.025635,4166.666504,4.0,4.0,4.0,100.0,100.0,4.0,4.0,4.0,,,,,,,,,,,,,,,,,,,,,,,,,,,,,,,,,,,,,64.443001,18.458467,4.477493,5.523545,3.717444,3.362004,1.062694,0.99474,0.608372,0.525106,32.518543,8.336506,1.000047,0.984274,0.597904,0.0
1709134452.67766,4471.282227,4163.589844,4359.487305,4.0,4.0,4.0,100.0,91.666664,3.0,4.0,4.0,1.0,0.295289,-2.705429,-3.663271,0.727235,1.0,0.256408,-0.030911,-0.616243,1.484469,1.0,0.208776,6.003621,2.735826,17.804934,0.331817,1.0,0.311746,-0.181086,-0.349598,0.153104,1.0,0.311996,0.048126,-0.848874,1.81655,1.0,0.491144,6.4235,-33.546937,47.433514,1.0,0.176155,0.485216,0.470519,0.627074,7.132343,2.988762,1.318303,4.042513,8.954497,1.492829,0.623181,1.146082,0.724938,0.40501,9.260446,1.358415,0.948677,0.791091,0.919,0.0
1709134452.802696,4368.205078,4148.717773,4254.871582,4.0,4.0,4.0,100.0,,,,,,,,,,,,,,,,,,,,,,,,,,,,,,,,,,,,,,,,,5.086497,3.117752,1.043603,4.396997,8.813219,1.732839,0.511328,1.270046,0.670991,0.395561,7.943483,1.486714,1.25982,0.965215,0.917069,0.0
1709134452.927731,4428.205078,4145.128418,4285.641113,4.0,4.0,4.0,100.0,,,,,,,,,,,,,,,,,,,,,,,,,,,,,,,,,,,,,,,,,4.424747,3.076434,0.812196,4.736468,8.925191,1.900945,0.44641,1.367969,0.615871,0.402106,7.1775,1.510298,1.66909,1.140767,0.904445,0.0
1709134453.052767,4635.384766,4220.512695,4502.563965,4.0,4.0,4.0,100.0,,,,,,,,,,,,,,,,,,,,,,,,,,,,,,,,,,,,,,,,,3.88553,2.725111,0.625347,5.009443,8.974663,1.985631,0.456837,1.427985,0.60825,0.431307,6.497423,1.409085,2.074503,1.271589,0.887129,0.0
1709134453.177802,4403.077148,4153.846191,4310.256348,4.0,4.0,4.0,100.0,91.666664,3.0,4.0,4.0,,,,,,,,,,,,,,,,,,,,,,,,,,,,,,,,,,,,,3.542907,2.160162,0.528842,5.193405,8.790077,1.954329,0.586679,1.461044,0.683739,0.481393,5.781457,1.253506,2.352472,1.336028,0.877696,0.0
1709134453.177802,4403.077148,4153.846191,4310.256348,4.0,4.0,4.0,100.0,91.666664,3.0,4.0,4.0,,,,,,,,,,,,,,,,,,,,,,,,,,,,,,,,,,,,,3.542907,2.160162,0.528842,5.193405,8.790077,1.954329,0.586679,1.461044,0.683739,0.481393,5.781457,1.253506,2.352472,1.336028,0.877696,0.0
1709134453.302838,4374.871582,4137.436035,4261.025879,4.0,4.0,4.0,100.0,,,,,,,,,,,,,,,,,,,,,,,,,,,,,,,,,,,,,,,,,4.652156,1.707981,0.566665,5.229008,8.401691,1.878532,0.841313,1.505212,0.847161,0.54484,5.576741,1.177954,2.409078,1.344772,0.882055,0.0
1709134453.427873,4465.641113,4207.692383,4308.205078,4.0,4.0,4.0,100.0,,,,,,,,,,,,,,,,,,,,,,,,,,,,,,,,,,,,,,,,,9.152022,1.711333,0.743057,5.052033,7.900917,1.83087,1.171113,1.59541,1.066148,0.613432,7.027593,1.301027,2.223321,1.328769,0.895137,0.0
1709134453.552909,4342.05127,4112.820313,4236.922852,4.0,4.0,4.0,100.0,,,,,,,,,,,,,,,,,,,,,,,,,,,,,,,,,,,,,,,,,18.006647,2.290856,1.019747,4.681373,7.385617,1.946876,1.519712,1.737646,1.280035,0.681652,10.729049,1.6537,1.852364,1.316054,0.906397,0.0
1709134453.677944,4513.333496,4123.077148,4323.589844,4.0,4.0,4.0,100.0,91.666664,3.0,4.0,4.0,,,,,,,,,,,,,,,,,,,,,,,,,,,,,,,,,,,,,30.258846,3.325668,1.358478,4.23254,6.960152,2.519479,1.87176,1.892485,1.422343,0.745755,16.365713,2.173215,1.408061,1.318869,0.909115,0.0
1709134453.677944,4513.333496,4123.077148,4323.589844,4.0,4.0,4.0,100.0,91.666664,3.0,4.0,4.0,,,,,,,,,,,,,,,,,,,,,,,,,,,,,,,,,,,,,30.258846,3.325668,1.358478,4.23254,6.960152,2.519479,1.87176,1.892485,1.422343,0.745755,16.365713,2.173215,1.408061,1.318869,0.909115,0.0
1709134453.80298,4428.717773,4158.974121,4285.641113,4.0,4.0,4.0,100.0,,,,,,,,,,,,,,,,,,,,,,,,,,,,,,,,,,,,,,,,,43.053432,4.600224,1.727609,3.854043,6.706486,4.030797,2.239617,1.995761,1.447113,0.798213,22.89036,2.716394,1.021678,1.32424,0.904278,0.0
1709134453.928015,4397.436035,4149.743652,4260.0,4.0,4.0,4.0,100.0,,,,,,,,,,,,,,,,,,,,,,,,,,,,,,,,,,,,,,,,,53.254448,6.105341,2.088718,3.681569,6.611639,6.647918,2.617547,1.993285,1.341068,0.826449,28.953348,3.121258,0.803025,1.300842,0.9007,0.0
1709134454.053051,4367.179688,4149.743652,4239.487305,4.0,4.0,4.0,100.0,,,,,,,,,,,,,,,,,,,,,,,,,,,,,,,,,,,,,,,,,59.290833,8.471658,2.437962,3.761236,6.593243,10.097714,2.986694,1.877551,1.132838,0.81898,33.782639,3.492189,0.792531,1.23189,0.90849,0.0
1709134454.178086,4308.205078,4161.538574,4232.307617,4.0,4.0,4.0,100.0,100.0,4.0,4.0,4.0,,,,,,,,,,,,,,,,,,,,,,,,,,,,,,,,,,,,,61.528492,12.210253,2.797048,4.04214,6.562536,13.610747,3.302217,1.690643,0.881413,0.772214,37.277626,3.983047,0.948058,1.131089,0.92934,0.0
1709134454.178086,4308.205078,4161.538574,4232.307617,4.0,4.0,4.0,100.0,100.0,4.0,4.0,4.0,,,,,,,,,,,,,,,,,,,,,,,,,,,,,,,,,,,,,61.528492,12.210253,2.797048,4.04214,6.562536,13.610747,3.302217,1.690643,0.881413,0.772214,37.277626,3.983047,0.948058,1.131089,0.92934,0.0
1709134454.303122,4309.743652,4144.102539,4274.358887,4.0,4.0,4.0,100.0,,,,,,,,,,,,,,,,,,,,,,,,,,,,,,,,,,,,,,,,,61.665863,17.14402,3.155249,4.371472,6.424128,16.143343,3.489608,1.503413,0.654672,0.695419,39.758675,4.674919,1.191818,1.029692,0.953178,0.0
1709134454.428157,4304.102539,4131.282227,4231.282227,4.0,4.0,4.0,100.0,,,,,,,,,,,,,,,,,,,,,,,,,,,,,,,,,,,,,,,,,61.24242,22.252501,3.445457,4.599737,6.125893,16.875662,3.473361,1.375866,0.502935,0.611186,41.298618,5.508752,1.417908,0.950725,0.965362,0.0
1709134454.553193,4336.410156,4142.563965,4243.589844,4.0,4.0,4.0,100.0,,,,,,,,,,,,,,,,,,,,,,,,,,,,,,,,,,,,,,,,,60.477665,25.961721,3.574704,4.642372,5.715706,15.56266,3.238407,1.336984,0.442623,0.544633,41.556679,6.270756,1.520846,0.895876,0.958795,0.0
1709134454.678229,4327.179688,4125.128418,4266.666504,4.0,4.0,4.0,100.0,91.666664,3.0,4.0,4.0,,,,,,,,,,,,,,,,,,,,,,,,,,,,,,,,,,,,,58.076618,26.833368,3.446522,4.497804,5.404736,12.649762,2.839762,1.362524,0.457411,0.509846,39.713333,6.688168,1.468719,0.860751,0.941693,0.0
1709134454.678229,4327.179688,4125.128418,4266.666504,4.0,4.0,4.0,100.0,91.666664,3.0,4.0,4.0,,,,,,,,,,,,,,,,,,,,,,,,,,,,,,,,,,,,,58.076618,26.833368,3.446522,4.497804,5.404736,12.649762,2.839762,1.362524,0.457411,0.509846,39.713333,6.688168,1.468719,0.860751,0.941693,0.0
1709134454.803264,4308.205078,4123.589844,4218.974121,4.0,4.0,4.0,100.0,,,,,,,,,,,,,,,,,,,,,,,,,,,,,,,,,,,,,,,,,52.486553,24.30546,3.047851,4.245128,5.467687,9.091505,2.38555,1.400877,0.512918,0.50392,35.331692,6.582232,1.30183,0.846104,0.93,0.0
1709134454.9283,4350.256348,4138.974121,4254.358887,4.0,4.0,4.0,100.0,,,,,,,,,,,,,,,,,,,,,,,,,,,,,,,,,,,,,,,,,42.573318,19.036385,2.484895,4.015781,6.040403,5.822335,2.004859,1.407827,0.571314,0.509652,28.260767,5.955297,1.119964,0.85978,0.936464,0.0
1709134455.053335,4382.05127,4149.230957,4321.025879,4.0,4.0,4.0,100.0,,,,,,,,,,,,,,,,,,,,,,,,,,,,,,,,,,,,,,,,,30.031815,12.716777,1.969365,3.94352,7.013035,3.544458,1.76678,1.354611,0.608202,0.507224,19.85158,5.043766,1.01399,0.931684,0.965614,0.0
1709134455.178371,4344.102539,4170.256348,4303.077148,4.0,4.0,4.0,100.0,100.0,4.0,4.0,4.0,,,,,,,,,,,,,,,,,,,,,,,,,,,,,,,,,,,,,17.56349,7.288237,1.721102,4.113636,8.040487,2.367285,1.716643,1.243251,0.625506,0.48768,11.909429,4.181541,1.038639,1.095926,1.011296,0.0
1709134455.178371,4344.102539,4170.256348,4303.077148,4.0,4.0,4.0,100.0,100.0,4.0,4.0,4.0,,,,,,,,,,,,,,,,,,,,,,,,,,,,,,,,,,,,,17.56349,7.288237,1.721102,4.113636,8.040487,2.367285,1.716643,1.243251,0.625506,0.48768,11.909429,4.181541,1.038639,1.095926,1.011296,0.0
1709134455.303406,4356.410156,4148.205078,4311.794922,4.0,4.0,4.0,100.0,,,,,,,,,,,,,,,,,,,,,,,,,,,,,,,,,,,,,,,,,8.513748,3.963485,1.838413,4.509442,8.674664,1.9868,1.882416,1.095317,0.646655,0.456982,6.390382,3.628793,1.177605,1.363821,1.05863,0.0
1709134455.428442,4342.563965,4143.077148,4286.153809,4.0,4.0,4.0,100.0,,,,,,,,,,,,,,,,,,,,,,,,,,,,,,,,,,,,,,,,,3.449972,2.836799,2.379926,5.004778,8.598449,1.955252,2.251306,0.94487,0.692669,0.429992,3.840098,3.4855,1.387071,1.699819,1.087894,0.0
1709134455.553477,4380.512695,4177.436035,4315.384766,4.0,4.0,4.0,100.0,,,,,,,,,,,,,,,,,,,,,,,,,,,,,,,,,,,,,,,,,1.57005,3.142816,3.2436,5.384855,7.796011,2.160284,2.755147,0.817572,0.763216,0.419833,3.563091,3.656218,1.585088,2.025697,1.080511,0.0
1709134455.678513,4316.410156,4133.333496,4211.282227,4.0,4.0,4.0,100.0,100.0,4.0,4.0,4.0,,,,,,,,,,,,,,,,,,,,,,,,,,,,,,,,,,,,,1.358618,3.847714,4.208299,5.446219,6.538934,2.548433,3.257909,0.721207,0.8386,0.431199,4.381633,3.924869,1.713375,2.248983,1.023927,0.0
1709134455.678513,4316.410156,4133.333496,4211.282227,4.0,4.0,4.0,100.0,100.0,4.0,4.0,4.0,,,,,,,,,,,,,,,,,,,,,,,,,,,,,,,,,,,,,1.358618,3.847714,4.208299,5.446219,6.538934,2.548433,3.257909,0.721207,0.8386,0.431199,4.381633,3.924869,1.713375,2.248983,1.023927,0.0
1709134455.803548,4429.230957,4165.641113,4281.025879,4.0,4.0,4.0,100.0,,,,,,,,,,,,,,,,,,,,,,,,,,,,,,,,,,,,,,,,,1.63229,4.361918,5.078736,5.123931,5.221662,2.985039,3.585516,0.657604,0.890616,0.458737,5.366091,4.117159,1.779148,2.309247,0.92157,0.0
1709134455.928584,4411.794922,4161.538574,4340.512695,4.0,4.0,4.0,100.0,,,,,,,,,,,,,,,,,,,,,,,,,,,,,,,,,,,,,,,,,2.320771,4.555047,5.695843,4.52968,4.167755,3.312013,3.646028,0.611401,0.902227,0.489996,6.372192,4.194701,1.793537,2.205964,0.791776,0.0
1709134456.05362,4370.769043,4160.512695,4288.717773,4.0,4.0,4.0,100.0,,,,,,,,,,,,,,,,,,,,,,,,,,,,,,,,,,,,,,,,,3.607581,4.541399,5.94633,3.909101,3.505647,3.430838,3.477166,0.571579,0.896287,0.514517,7.301895,4.216882,1.752408,2.007501,0.660881,0.0
1709134456.178655,4290.769043,4107.179688,4187.179688,4.0,4.0,4.0,100.0,100.0,4.0,4.0,4.0,,,,,,,,,,,,,,,,,,,,,,,,,,,,,,,,,,,,,6.247073,4.807757,5.874592,3.551536,3.162614,3.346507,3.192628,0.554384,0.919387,0.532369,8.436322,4.458598,1.672794,1.812374,0.550295,0.0
1709134456.178655,4290.769043,4107.179688,4187.179688,4.0,4.0,4.0,100.0,100.0,4.0,4.0,4.0,,,,,,,,,,,,,,,,,,,,,,,,,,,,,,,,,,,,,6.247073,4.807757,5.874592,3.551536,3.162614,3.346507,3.192628,0.554384,0.919387,0.532369,8.436322,4.458598,1.672794,1.812374,0.550295,0.0
1709134456.303691,4429.743652,4112.307617,4222.05127,4.0,4.0,4.0,100.0,,,,,,,,,,,,,,,,,,,,,,,,,,,,,,,,,,,,,,,,,11.306598,5.890306,5.642319,3.653941,2.972931,3.141463,2.908932,0.620182,1.005491,0.551571,10.523168,5.184662,1.5914,1.693792,0.472047,0.0
1709134456.428726,4301.025879,4147.179688,4270.769043,4.0,4.0,4.0,100.0,,,,,,,,,,,,,,,,,,,,,,,,,,,,,,,,,,,,,,,,,19.766804,8.129043,5.532067,4.19241,2.81082,2.922488,2.729424,0.845444,1.157309,0.579961,14.156318,6.532774,1.595031,1.673812,0.427729,0.0
1709134456.553762,4185.641113,4112.820313,4083.076904,4.0,4.0,4.0,100.0,,,,,,,,,,,,,,,,,,,,,,,,,,,,,,,,,,,,,,,,,35.49313,12.654941,5.677519,4.957381,2.68539,2.786677,2.687112,1.256829,1.345462,0.617874,19.927776,8.757814,1.738532,1.725375,0.413776,0.0
1709134456.678797,3938.461426,4097.94873,4164.102539,4.0,4.0,4.0,100.0,75.0,1.0,4.0,4.0,,,,,,,,,,,,,,,,,,,,,,,,,,,,,,,,,,,,,75.290871,20.148886,6.218458,5.845785,2.928833,2.927989,2.820117,1.817023,1.521334,0.658946,28.305109,12.325829,2.037204,1.800454,0.447086,0.0
1709134456.678797,3938.461426,4097.94873,4164.102539,4.0,4.0,4.0,100.0,75.0,1.0,4.0,4.0,,,,,,,,,,,,,,,,,,,,,,,,,,,,,,,,,,,,,75.290871,20.148886,6.218458,5.845785,2.928833,2.927989,2.820117,1.817023,1.521334,0.658946,28.305109,12.325829,2.037204,1.800454,0.447086,0.0
1709134456.803833,4298.461426,4087.179443,4348.205078,4.0,4.0,4.0,100.0,,,,,,,,,,,,,,,,,,,,,,,,,,,,,,,,,,,,,,,,,170.549042,31.24855,7.529808,7.175133,4.335475,3.709981,3.154599,2.414267,1.645509,0.701075,38.87072,17.41518,2.456865,1.872244,0.579468,0.0
1709134456.928868,4026.666748,4132.307617,4220.512695,4.0,4.0,4.0,100.0,,,,,,,,,,,,,,,,,,,,,,,,,,,,,,,,,,,,,,,,,351.021271,45.054562,9.734182,9.449669,7.677291,5.284882,3.648391,2.907022,1.700681,0.749302,50.838711,23.463953,2.85637,1.92521,0.857917,0.0
1709134457.053904,4140.0,4110.769043,4205.128418,4.0,4.0,4.0,100.0,,,,,,,,,,,,,,,,,,,,,,,,,,,,,,,,,,,,,,,,,612.227905,59.150597,12.516155,12.947347,13.066531,7.638573,4.196891,3.179922,1.698058,0.81037,62.238472,29.2696,3.111897,1.964035,1.28513,0.0
1709134457.178939,4067.179443,4132.820313,4266.666504,4.0,4.0,4.0,100.0,75.0,1.0,4.0,4.0,,,,,,,,,,,,,,,,,,,,,,,,,,,,,,,,,,,,,911.971252,71.227821,15.17039,17.399609,19.737606,10.355016,4.693262,3.170593,1.652097,0.88015,71.15509,33.486286,3.183126,1.998442,1.800621,0.0
1709134457.178939,4067.179443,4132.820313,4266.666504,4.0,4.0,4.0,100.0,75.0,1.0,4.0,4.0,,,,,,,,,,,,,,,,,,,,,,,,,,,,,,,,,,,,,911.971252,71.227821,15.17039,17.399609,19.737606,10.355016,4.693262,3.170593,1.652097,0.88015,71.15509,33.486286,3.183126,1.998442,1.800621,0.0
1709134457.303975,4186.153809,4150.769043,4289.230957,4.0,4.0,4.0,100.0,,,,,,,,,,,,,,,,,,,,,,,,,,,,,,,,,,,,,,,,,1162.766235,79.645012,16.937561,21.926037,26.452442,12.898554,5.062199,2.901962,1.575447,0.942347,74.582657,35.119694,3.131194,2.025076,2.298108,0.0
1709134457.429011,4229.230957,4139.487305,4312.820313,4.0,4.0,4.0,100.0,,,,,,,,,,,,,,,,,,,,,,,,,,,,,,,,,,,,,,,,,1289.848511,83.223244,17.322405,25.361996,32.019768,14.543105,5.249238,2.473159,1.476747,0.976216,71.659035,33.809155,3.0601,2.028263,2.664005,0.0
1709134457.554046,4322.563965,4120.512695,4261.025879,4.0,4.0,4.0,100.0,,,,,,,,,,,,,,,,,,,,,,,,,,,,,,,,,,,,,,,,,1243.78772,81.564301,16.122198,26.659477,35.625721,14.770969,5.233418,1.995478,1.352853,0.966875,62.983242,29.958136,3.010045,1.982835,2.823138,0.0
1709134457.679082,4193.333496,4020.512939,4135.897461,4.0,4.0,4.0,100.0,75.0,1.0,4.0,4.0,,,,,,,,,,,,,,,,,,,,,,,,,,,,,,,,,,,,,1043.567993,74.9991,13.58118,25.356522,36.998161,13.459961,5.043363,1.572507,1.206564,0.912413,50.837261,24.570974,2.945058,1.866628,2.76206,1.0
1709134457.679082,4193.333496,4020.512939,4135.897461,4.0,4.0,4.0,100.0,75.0,1.0,4.0,4.0,,,,,,,,,,,,,,,,,,,,,,,,,,,,,,,,,,,,,1043.567993,74.9991,13.58118,25.356522,36.998161,13.459961,5.043363,1.572507,1.206564,0.912413,50.837261,24.570974,2.945058,1.866628,2.76206,1.0
1709134457.804117,4219.487305,4040.512939,4125.641113,4.0,4.0,4.0,100.0,,,,,,,,,,,,,,,,,,,,,,,,,,,,,,,,,,,,,,,,,751.472351,64.634949,10.570273,21.878046,36.41256,10.995089,4.711497,1.267408,1.06236,0.83111,37.899036,18.830544,2.780688,1.678752,2.525931,1.0
1709134457.929153,4274.871582,4070.769287,4129.743652,4.0,4.0,4.0,100.0,,,,,,,,,,,,,,,,,,,,,,,,,,,,,,,,,,,,,,,,,457.862793,51.948391,8.033915,17.353624,34.429638,7.954676,4.238147,1.112573,0.963916,0.760293,26.67115,13.712109,2.470684,1.445042,2.195534,1.0
1709134458.054188,4273.846191,4062.564209,4086.153809,4.0,4.0,4.0,100.0,,,,,,,,,,,,,,,,,,,,,,,,,,,,,,,,,,,,,,,,,227.327438,38.636242,6.524013,13.084593,31.570164,5.160512,3.617916,1.101408,0.939219,0.740891,18.030869,9.749452,2.031241,1.206231,1.855614,1.0
1709134458.179224,4345.128418,4093.846191,4127.692383,4.0,4.0,4.0,100.0,75.0,1.0,4.0,4.0,,,,,,,,,,,,,,,,,,,,,,,,,,,,,,,,,,,,,89.748909,26.072142,5.986321,9.960952,28.138174,3.056623,2.880622,1.20681,0.984787,0.799853,12.026249,6.862896,1.529146,1.001796,1.568139,1.0
1709134458.179224,4345.128418,4093.846191,4127.692383,4.0,4.0,4.0,100.0,75.0,1.0,4.0,4.0,,,,,,,,,,,,,,,,,,,,,,,,,,,,,,,,,,,,,89.748909,26.072142,5.986321,9.960952,28.138174,3.056623,2.880622,1.20681,0.984787,0.799853,12.026249,6.862896,1.529146,1.001796,1.568139,1.0
1709134458.304259,4295.384766,4100.512695,4145.128418,4.0,4.0,4.0,100.0,,,,,,,,,,,,,,,,,,,,,,,,,,,,,,,,,,,,,,,,,29.029325,15.571926,5.937683,8.210259,24.268421,1.880313,2.121891,1.37142,1.073959,0.933631,7.925758,4.702898,1.076681,0.861907,1.361028,1.0
1709134458.429295,4270.256348,4088.205078,4153.333496,4.0,4.0,4.0,100.0,,,,,,,,,,,,,,,,,,,,,,,,,,,,,,,,,,,,,,,,,10.243472,8.294447,5.875893,7.534996,20.159014,1.491496,1.476902,1.518517,1.172588,1.108062,5.437037,3.13527,0.770581,0.804189,1.23981,1.0
1709134458.55433,4336.922852,4099.487305,4235.897461,4.0,4.0,4.0,100.0,,,,,,,,,,,,,,,,,,,,,,,,,,,,,,,,,,,,,,,,,6.598486,4.648705,5.659304,7.484849,16.351307,1.536611,1.040665,1.592799,1.244302,1.27454,4.548137,2.295055,0.657723,0.831218,1.208819,1.0
1709134458.679366,4357.94873,4086.666748,4267.179688,4.0,4.0,4.0,100.0,75.0,1.0,4.0,4.0,,,,,,,,,,,,,,,,,,,,,,,,,,,,,,,,,,,,,7.523094,3.792891,5.412126,7.669001,13.569689,1.898612,0.833051,1.580964,1.260242,1.38761,5.064651,2.111415,0.685297,0.919467,1.26775,1.0
1709134458.679366,4357.94873,4086.666748,4267.179688,4.0,4.0,4.0,100.0,75.0,1.0,4.0,4.0,,,,,,,,,,,,,,,,,,,,,,,,,,,,,,,,,,,,,7.523094,3.792891,5.412126,7.669001,13.569689,1.898612,0.833051,1.580964,1.260242,1.38761,5.064651,2.111415,0.685297,0.919467,1.26775,1.0
1709134458.804402,4339.487305,4088.718018,4262.563965,4.0,4.0,4.0,100.0,,,,,,,,,,,,,,,,,,,,,,,,,,,,,,,,,,,,,,,,,10.590683,4.341623,5.100862,7.813081,12.153014,2.534531,0.794474,1.490559,1.204934,1.416309,6.554996,2.459636,0.784934,1.022478,1.388027,1.0
1709134458.929437,4424.102539,4121.538574,4248.717773,4.0,4.0,4.0,100.0,,,,,,,,,,,,,,,,,,,,,,,,,,,,,,,,,,,,,,,,,13.477598,5.451966,4.644157,7.777758,11.951529,3.225582,0.840446,1.339811,1.077945,1.353333,8.373531,3.226609,0.917778,1.094958,1.52514,1.0
1709134459.054473,4661.025879,4132.820313,4430.769043,4.0,4.0,4.0,100.0,,,,,,,,,,,,,,,,,,,,,,,,,,,,,,,,,,,,,,,,,15.808692,6.786694,4.033074,7.537176,12.51306,3.70177,0.898086,1.164082,0.91039,1.216141,9.964081,4.254469,1.053135,1.099882,1.63211,1.0
1709134459.179508,4453.846191,4117.436035,4302.563965,4.0,4.0,4.0,100.0,91.666664,3.0,4.0,4.0,,,,,,,,,,,,,,,,,,,,,,,,,,,,,,,,,,,,,16.896727,7.930476,3.399264,7.159067,13.30096,3.870779,0.938681,0.98979,0.742531,1.038733,11.09553,5.229685,1.165024,1.028707,1.675537,1.0
1709134459.179508,4453.846191,4117.436035,4302.563965,4.0,4.0,4.0,100.0,91.666664,3.0,4.0,4.0,,,,,,,,,,,,,,,,,,,,,,,,,,,,,,,,,,,,,16.896727,7.930476,3.399264,7.159067,13.30096,3.870779,0.938681,0.98979,0.742531,1.038733,11.09553,5.229685,1.165024,1.028707,1.675537,1.0
1709134459.304544,4386.153809,4094.871826,4258.974121,4.0,4.0,4.0,100.0,,,,,,,,,,,,,,,,,,,,,,,,,,,,,,,,,,,,,,,,,18.125711,8.691687,2.955158,6.701473,13.744142,3.7778,0.961907,0.8486,0.616967,0.860319,12.220224,5.912776,1.231959,0.901896,1.64446,1.0
1709134459.429579,4361.025879,4174.871582,4251.794922,4.0,4.0,4.0,100.0,,,,,,,,,,,,,,,,,,,,,,,,,,,,,,,,,,,,,,,,,22.899637,9.476737,2.902977,6.207892,13.411228,3.675224,0.971252,0.763615,0.564266,0.710716,14.374978,6.316892,1.229477,0.759218,1.554006,1.0
1709134459.554615,4299.487305,4049.230713,4171.794922,4.0,4.0,4.0,100.0,,,,,,,,,,,,,,,,,,,,,,,,,,,,,,,,,,,,,,,,,33.227821,10.864294,3.381995,5.736233,12.225403,3.803789,0.977839,0.746133,0.585537,0.603936,18.342381,6.66285,1.154325,0.643866,1.439333,1.0
1709134459.67965,4418.461426,4085.641113,4288.717773,4.0,4.0,4.0,100.0,91.666664,3.0,4.0,4.0,,,,,,,,,,,,,,,,,,,,,,,,,,,,,,,,,,,,,48.63792,12.980893,4.383481,5.395772,10.477236,4.438607,1.021004,0.785429,0.657524,0.542239,23.868713,7.15337,1.025026,0.58515,1.34465,1.0
1709134459.67965,4418.461426,4085.641113,4288.717773,4.0,4.0,4.0,100.0,91.666664,3.0,4.0,4.0,,,,,,,,,,,,,,,,,,,,,,,,,,,,,,,,,,,,,48.63792,12.980893,4.383481,5.395772,10.477236,4.438607,1.021004,0.785429,0.657524,0.542239,23.868713,7.15337,1.025026,0.58515,1.34465,1.0
1709134459.804686,4267.179688,4125.128418,4114.871582,4.0,4.0,4.0,100.0,,,,,,,,,,,,,,,,,,,,,,,,,,,,,,,,,,,,,,,,,64.971916,15.277359,5.786941,5.298554,8.638069,6.035358,1.145277,0.855687,0.74446,0.521106,29.291515,7.798666,0.886444,0.589539,1.305986,1.0
1709134459.929721,4307.692383,4123.077148,4073.846191,4.0,4.0,4.0,100.0,,,,,,,,,,,,,,,,,,,,,,,,,,,,,,,,,,,,,,,,,76.791115,17.120775,7.701603,5.452945,7.095121,9.011545,1.329814,0.925414,0.80986,0.532422,32.478897,8.372091,0.812865,0.643678,1.333439,1.0
1709134460.054757,4274.358887,4109.230957,4121.538574,4.0,4.0,4.0,100.0,,,,,,,,,,,,,,,,,,,,,,,,,,,,,,,,,,,,,,,,,80.952911,18.423342,10.345468,5.743926,5.99886,13.263748,1.551203,0.978388,0.836645,0.566538,32.786098,8.698683,0.871962,0.727522,1.403126,1.0
1709134460.179792,4325.128418,4144.615234,4202.563965,4.0,4.0,4.0,100.0,91.666664,3.0,4.0,4.0,,,,,,,,,,,,,,,,,,,,,,,,,,,,,,,,,,,,,77.839447,19.366339,13.701215,5.96916,5.271555,18.186594,1.7565,1.023446,0.834,0.605939,31.073805,8.562018,1.093836,0.827066,1.469404,1.0
1709134460.179792,4325.128418,4144.615234,4202.563965,4.0,4.0,4.0,100.0,91.666664,3.0,4.0,4.0,,,,,,,,,,,,,,,,,,,,,,,,,,,,,,,,,,,,,77.839447,19.366339,13.701215,5.96916,5.271555,18.186594,1.7565,1.023446,0.834,0.605939,31.073805,8.562018,1.093836,0.827066,1.469404,1.0
1709134460.304828,4320.512695,4116.922852,4201.025879,4.0,4.0,4.0,100.0,,,,,,,,,,,,,,,,,,,,,,,,,,,,,,,,,,,,,,,,,70.636597,20.180155,17.271624,5.981249,4.754196,22.384937,1.883577,1.06963,0.827295,0.630875,28.894449,7.93084,1.457618,0.940164,1.491248,1.0
1709134460.429864,4345.641113,4151.794922,4230.256348,4.0,4.0,4.0,100.0,,,,,,,,,,,,,,,,,,,,,,,,,,,,,,,,,,,,,,,,,63.196083,20.824013,20.132359,5.813897,4.383401,24.719093,1.89982,1.113847,0.833996,0.626473,27.637409,6.947574,1.874037,1.057889,1.450227,1.0
1709134460.554899,4340.512695,4142.05127,4270.769043,4.0,4.0,4.0,100.0,,,,,,,,,,,,,,,,,,,,,,,,,,,,,,,,,,,,,,,,,57.831615,20.947941,21.272451,5.632908,4.188713,24.25666,1.815915,1.142565,0.859319,0.590094,27.816835,5.917868,2.234773,1.15334,1.355778,1.0
1709134460.679935,4345.641113,4173.846191,4333.333496,4.0,4.0,4.0,100.0,100.0,4.0,4.0,4.0,,,,,,,,,,,,,,,,,,,,,,,,,,,,,,,,,,,,,54.337734,19.985775,20.161617,5.701066,4.200677,21.251137,1.664893,1.134047,0.890946,0.533526,28.876041,5.075841,2.441623,1.189677,1.234245,1.0
1709134460.679935,4345.641113,4173.846191,4333.333496,4.0,4.0,4.0,100.0,100.0,4.0,4.0,4.0,,,,,,,,,,,,,,,,,,,,,,,,,,,,,,,,,,,,,54.337734,19.985775,20.161617,5.701066,4.200677,21.251137,1.664893,1.134047,0.890946,0.533526,28.876041,5.075841,2.441623,1.189677,1.234245,1.0
1709134460.80497,4406.666504,4184.102539,4354.358887,4.0,4.0,4.0,100.0,,,,,,,,,,,,,,,,,,,,,,,,,,,,,,,,,,,,,,,,,50.44865,17.437378,16.985884,6.176857,4.415395,16.502279,1.476893,1.075845,0.911461,0.476342,29.329838,4.373476,2.424434,1.145353,1.113736,1.0
1709134460.930006,4407.692383,4213.846191,4404.102539,4.0,4.0,4.0,100.0,,,,,,,,,,,,,,,,,,,,,,,,,,,,,,,,,,,,,,,,,43.700737,13.4701,12.644519,6.976233,4.76789,11.609342,1.281261,0.982466,0.913048,0.437517,27.697622,3.676089,2.20454,1.029253,1.013395,1.0
1709134461.055041,4393.846191,4236.922852,4421.538574,4.0,4.0,4.0,100.0,,,,,,,,,,,,,,,,,,,,,,,,,,,,,,,,,,,,,,,,,33.448418,9.024302,8.432222,7.808479,5.156189,7.48015,1.115275,0.871621,0.898527,0.433303,23.225294,2.932036,1.889636,0.879865,0.940971,1.0
1709134461.180077,4407.179688,4218.461426,4425.128418,4.0,4.0,4.0,100.0,66.666664,4.0,4.0,4.0,,,,,,,,,,,,,,,,,,,,,,,,,,,,,,,,,,,,,21.923174,5.326283,5.358532,8.329588,5.430073,4.928901,1.015097,0.76254,0.886066,0.47999,17.630007,2.290003,1.611883,0.759638,0.896572,1.0
1709134461.180077,4407.179688,4218.461426,4425.128418,4.0,4.0,4.0,100.0,66.666664,4.0,4.0,4.0,,,,,,,,,,,,,,,,,,,,,,,,,,,,,,,,,,,,,21.923174,5.326283,5.358532,8.329588,5.430073,4.928901,1.015097,0.76254,0.886066,0.47999,17.630007,2.290003,1.611883,0.759638,0.896572,1.0
1709134461.305112,4403.589844,4242.563965,4472.307617,4.0,4.0,4.0,100.0,,,,,,,,,,,,,,,,,,,,,,,,,,,,,,,,,,,,,,,,,12.79892,3.056489,3.808498,8.344985,5.501071,3.560389,0.978621,0.663242,0.893405,0.58639,12.392451,1.868756,1.493895,0.725555,0.876531,1.0
1709134461.430148,4455.384766,4250.256348,4509.230957,4.0,4.0,4.0,100.0,,,,,,,,,,,,,,,,,,,,,,,,,,,,,,,,,,,,,,,,,7.653492,2.188602,3.437572,7.875154,5.382422,2.887271,1.012982,0.574941,0.922166,0.745462,8.895414,1.723382,1.583035,0.805902,0.88028,1.0
1709134461.555183,4379.487305,4215.384766,4435.384766,4.0,4.0,4.0,100.0,,,,,,,,,,,,,,,,,,,,,,,,,,,,,,,,,,,,,,,,,6.171788,2.323102,3.54631,7.107969,5.173711,2.335449,1.14298,0.497066,0.954718,0.931198,7.080426,1.921194,1.852263,0.985726,0.912193,1.0
1709134461.680219,4426.666504,4232.820313,4451.282227,4.0,4.0,4.0,100.0,75.0,4.0,4.0,4.0,,,,,,,,,,,,,,,,,,,,,,,,,,,,,,,,,,,,,6.91899,2.986885,3.604588,6.259802,4.99831,1.908301,1.343871,0.445992,0.969621,1.100924,7.028039,2.457795,2.21532,1.225233,0.971172,1.0
1709134461.680219,4426.666504,4232.820313,4451.282227,4.0,4.0,4.0,100.0,75.0,4.0,4.0,4.0,,,,,,,,,,,,,,,,,,,,,,,,,,,,,,,,,,,,,6.91899,2.986885,3.604588,6.259802,4.99831,1.908301,1.343871,0.445992,0.969621,1.100924,7.028039,2.457795,2.21532,1.225233,0.971172,1.0
1709134461.805254,4301.025879,4257.94873,4502.563965,4.0,4.0,4.0,100.0,,,,,,,,,,,,,,,,,,,,,,,,,,,,,,,,,,,,,,,,,8.354497,3.951147,3.460927,5.487929,4.910769,1.55942,1.58417,0.452857,0.958141,1.210595,7.725644,3.274013,2.603392,1.480868,1.042752,1.0
1709134461.93029,4237.436035,4213.846191,4409.743652,4.0,4.0,4.0,100.0,,,,,,,,,,,,,,,,,,,,,,,,,,,,,,,,,,,,,,,,,9.820328,5.0258,3.236013,4.832395,4.902305,1.581111,1.820065,0.551745,0.932953,1.233006,8.834899,4.200038,2.923545,1.715403,1.099865,1.0
1709134462.055325,4204.102539,4166.666504,4344.615234,4.0,4.0,4.0,100.0,,,,,,,,,,,,,,,,,,,,,,,,,,,,,,,,,,,,,,,,,12.377135,7.132849,3.395888,4.263018,4.957909,1.846708,2.004238,0.75475,0.926348,1.170641,9.530496,5.071647,3.090333,1.89999,1.112344,1.0
1709134462.180361,4231.794922,4153.333496,4337.436035,4.0,4.0,4.0,100.0,75.0,4.0,4.0,4.0,,,,,,,,,,,,,,,,,,,,,,,,,,,,,,,,,,,,,19.600086,11.8402,4.580639,3.745396,5.074667,2.349515,2.081937,1.037657,0.968541,1.051987,10.885193,5.822348,3.057105,2.010596,1.066047,0.0
1709134462.180361,4231.794922,4153.333496,4337.436035,4.0,4.0,4.0,100.0,75.0,4.0,4.0,4.0,,,,,,,,,,,,,,,,,,,,,,,,,,,,,,,,,,,,,19.600086,11.8402,4.580639,3.745396,5.074667,2.349515,2.081937,1.037657,0.968541,1.051987,10.885193,5.822348,3.057105,2.010596,1.066047,0.0
1709134462.305397,4204.615234,4275.384766,4331.282227,4.0,4.0,4.0,100.0,,,,,,,,,,,,,,,,,,,,,,,,,,,,,,,,,,,,,,,,,34.372852,20.044216,7.090886,3.321785,5.27428,2.817068,2.035811,1.366237,1.060429,0.916381,12.384494,6.471989,2.837231,2.032264,0.971819,0.0
1709134462.430432,4246.666504,4121.025879,4266.153809,4.0,4.0,4.0,100.0,,,,,,,,,,,,,,,,,,,,,,,,,,,,,,,,,,,,,,,,,55.703819,30.851131,10.563413,3.095672,5.595127,3.221266,1.963574,1.697741,1.167941,0.795356,14.414089,7.018627,2.45711,1.976334,0.860743,0.0
1709134462.555468,4312.307617,4118.974121,4308.717773,4.0,4.0,4.0,100.0,,,,,,,,,,,,,,,,,,,,,,,,,,,,,,,,,,,,,,,,,79.392052,41.549995,14.025645,3.140169,6.082593,4.251684,2.012643,2.005952,1.252001,0.702461,16.266045,7.366219,1.987562,1.902959,0.77472,0.0
1709134462.680503,4382.563965,4132.307617,4369.743652,4.0,4.0,4.0,100.0,66.666664,4.0,4.0,4.0,1.0,0.250827,-2.589143,-3.686606,0.725032,1.0,0.384417,0.233087,-0.61801,1.483147,1.0,0.151064,5.083653,2.716968,17.79429,0.27663,1.0,0.386665,-0.136868,-0.349339,0.152495,1.0,0.362226,0.242718,-0.8479,1.812973,1.0,0.493746,6.796929,-33.473266,47.330567,1.0,0.184742,0.502532,0.470263,0.627136,97.301926,48.684162,16.341976,3.430398,6.721539,7.571027,2.343249,2.310554,1.298679,0.637702,17.45071,7.336881,1.51248,1.900861,0.751164,0.0
1709134462.680503,4382.563965,4132.307617,4369.743652,4.0,4.0,4.0,100.0,66.666664,4.0,4.0,4.0,1.0,0.250827,-2.589143,-3.686606,0.725032,1.0,0.384417,0.233087,-0.61801,1.483147,1.0,0.151064,5.083653,2.716968,17.79429,0.27663,1.0,0.386665,-0.136868,-0.349339,0.152495,1.0,0.362226,0.242718,-0.8479,1.812973,1.0,0.493746,6.796929,-33.473266,47.330567,1.0,0.184742,0.502532,0.470263,0.627136,97.301926,48.684162,16.341976,3.430398,6.721539,7.571027,2.343249,2.310554,1.298679,0.637702,17.45071,7.336881,1.51248,1.900861,0.751164,0.0
1709134462.805539,4354.358887,4147.179688,4354.358887,4.0,4.0,4.0,100.0,,,,,,,,,,,,,,,,,,,,,,,,,,,,,,,,,,,,,,,,,103.322639,49.55508,16.715816,3.85319,7.398095,14.650742,3.032157,2.65573,1.315609,0.597041,17.406155,6.779068,1.105191,2.030018,0.807292,0.0
1709134462.930574,4413.333496,4156.922852,4361.538574,4.0,4.0,4.0,100.0,,,,,,,,,,,,,,,,,,,,,,,,,,,,,,,,,,,,,,,,,95.343262,43.798534,15.081861,4.286583,7.965774,25.579172,3.943694,3.04192,1.322202,0.580474,15.978324,5.740617,0.823919,2.293024,0.929893,0.0
1709134463.05561,4391.282227,4157.436035,4339.487305,4.0,4.0,4.0,100.0,,,,,,,,,,,,,,,,,,,,,,,,,,,,,,,,,,,,,,,,,78.003922,34.075214,12.173289,4.640547,8.332302,38.178055,4.777162,3.388303,1.332851,0.593746,13.888578,4.606679,0.691188,2.626192,1.081719,0.0
1709134463.180645,4417.94873,4154.358887,4368.205078,4.0,4.0,4.0,100.0,100.0,4.0,4.0,4.0,,,,,,,,,,,,,,,,,,,,,,,,,,,,,,,,,,,,,59.201115,24.549007,9.086095,4.846722,8.488995,49.150879,5.192491,3.570106,1.344541,0.637676,12.126372,3.929758,0.71228,2.922517,1.219477,0.0
1709134463.180645,4417.94873,4154.358887,4368.205078,4.0,4.0,4.0,100.0,100.0,4.0,4.0,4.0,,,,,,,,,,,,,,,,,,,,,,,,,,,,,,,,,,,,,59.201115,24.549007,9.086095,4.846722,8.488995,49.150879,5.192491,3.570106,1.344541,0.637676,12.126372,3.929758,0.71228,2.922517,1.219477,0.0
1709134463.305681,4412.307617,4137.436035,4323.077148,4.0,4.0,4.0,100.0,,,,,,,,,,,,,,,,,,,,,,,,,,,,,,,,,,,,,,,,,46.60622,18.566986,6.737669,4.870375,8.468222,54.569141,4.996039,3.494595,1.339005,0.709844,11.500122,4.048094,0.870262,3.080445,1.317099,0.0
1709134463.430716,4551.794922,4162.563965,4314.871582,4.0,4.0,4.0,100.0,,,,,,,,,,,,,,,,,,,,,,,,,,,,,,,,,,,,,,,,,43.324791,17.001516,5.460637,4.725718,8.288413,52.689991,4.199522,3.146783,1.293153,0.811314,12.12839,4.824651,1.105888,3.059527,1.381167,0.0
1709134463.555752,4546.666504,4201.025879,4411.794922,4.0,4.0,4.0,100.0,,,,,,,,,,,,,,,,,,,,,,,,,,,,,,,,,,,,,,,,,46.457569,18.095024,4.960303,4.454167,7.924298,43.857391,3.092351,2.621476,1.199077,0.939579,13.220987,5.723291,1.33539,2.892602,1.433219,0.0
1709134463.680787,4753.846191,4195.897461,4491.794922,4.0,4.0,4.0,100.0,100.0,4.0,4.0,4.0,,,,,,,,,,,,,,,,,,,,,,,,,,,,,,,,,,,,,50.297821,18.902487,4.63315,4.108457,7.349764,31.431408,2.096818,2.087098,1.081187,1.081367,13.803456,6.076016,1.474568,2.646704,1.4883,0.0
1709134463.680787,4753.846191,4195.897461,4491.794922,4.0,4.0,4.0,100.0,100.0,4.0,4.0,4.0,,,,,,,,,,,,,,,,,,,,,,,,,,,,,,,,,,,,,50.297821,18.902487,4.63315,4.108457,7.349764,31.431408,2.096818,2.087098,1.081187,1.081367,13.803456,6.076016,1.474568,2.646704,1.4883,0.0
1709134463.805823,4423.077148,4174.871582,4324.615234,4.0,4.0,4.0,100.0,,,,,,,,,,,,,,,,,,,,,,,,,,,,,,,,,,,,,,,,,49.355591,17.345125,4.067929,3.724238,6.580793,19.122541,1.57486,1.694764,0.974965,1.210251,13.119515,5.602137,1.480312,2.389588,1.543358,0.0
1709134463.930858,4423.589844,4124.102539,4294.358887,4.0,4.0,4.0,100.0,,,,,,,,,,,,,,,,,,,,,,,,,,,,,,,,,,,,,,,,,44.864708,14.095456,3.439579,3.378784,5.736544,10.067061,1.595973,1.506405,0.904291,1.294815,11.604907,4.616353,1.405506,2.159745,1.57544,0.0
1709134464.055894,4464.102539,4163.077148,4251.794922,4.0,4.0,4.0,100.0,,,,,,,,,,,,,,,,,,,,,,,,,,,,,,,,,,,,,,,,,41.619003,11.093042,3.178198,3.13668,4.973082,5.012358,1.952394,1.474172,0.87376,1.312341,10.376198,3.661039,1.347429,1.956325,1.557727,0.0
1709134464.18093,4399.487305,4132.307617,4240.0,4.0,4.0,4.0,100.0,91.666664,3.0,4.0,4.0,,,,,,,,,,,,,,,,,,,,,,,,,,,,,,,,,,,,,45.368359,9.989313,3.55139,3.015384,4.428863,3.230978,2.275605,1.487136,0.865097,1.256639,10.582788,3.124257,1.380421,1.747466,1.47358,0.0
1709134464.18093,4399.487305,4132.307617,4240.0,4.0,4.0,4.0,100.0,91.666664,3.0,4.0,4.0,,,,,,,,,,,,,,,,,,,,,,,,,,,,,,,,,,,,,45.368359,9.989313,3.55139,3.015384,4.428863,3.230978,2.275605,1.487136,0.865097,1.256639,10.582788,3.124257,1.380421,1.747466,1.47358,0.0
1709134464.305965,4366.153809,4155.384766,4251.794922,4.0,4.0,4.0,100.0,,,,,,,,,,,,,,,,,,,,,,,,,,,,,,,,,,,,,,,,,56.629314,11.50444,4.454739,3.000317,4.20473,3.081849,2.315287,1.431555,0.859372,1.14932,12.830885,3.176285,1.534381,1.513201,1.330343,0.0
1709134464.431001,4346.666504,4125.641113,4211.282227,4.0,4.0,4.0,100.0,,,,,,,,,,,,,,,,,,,,,,,,,,,,,,,,,,,,,,,,,73.765785,15.459084,5.490766,3.031241,4.309898,3.601671,2.114955,1.294619,0.858863,1.035204,17.034216,3.798327,1.780164,1.282272,1.166505,1.0
1709134464.556036,4368.717773,4147.179688,4185.641113,4.0,4.0,4.0,100.0,,,,,,,,,,,,,,,,,,,,,,,,,,,,,,,,,,,,,,,,,90.544563,20.727205,6.240201,3.023963,4.620765,4.563413,1.811181,1.135134,0.88072,0.956266,22.521626,4.848384,2.038752,1.083406,1.026883,1.0
1709134464.681072,4565.128418,4167.179688,4330.769043,4.0,4.0,4.0,100.0,100.0,4.0,4.0,4.0,,,,,,,,,,,,,,,,,,,,,,,,,,,,,,,,,,,,,101.346344,25.719725,6.483881,2.923064,4.938526,5.997072,1.524021,1.031624,0.949389,0.9313,28.233681,6.109694,2.258874,0.944223,0.939023,1.0
1709134464.681072,4565.128418,4167.179688,4330.769043,4.0,4.0,4.0,100.0,100.0,4.0,4.0,4.0,,,,,,,,,,,,,,,,,,,,,,,,,,,,,,,,,,,,,101.346344,25.719725,6.483881,2.923064,4.938526,5.997072,1.524021,1.031624,0.949389,0.9313,28.233681,6.109694,2.258874,0.944223,0.939023,1.0
1709134464.806107,4117.94873,4134.358887,4166.153809,4.0,4.0,4.0,100.0,,,,,,,,,,,,,,,,,,,,,,,,,,,,,,,,,,,,,,,,,102.870285,29.444305,6.269664,2.732446,5.102202,7.813179,1.335381,1.032283,1.078035,0.94885,32.829365,7.423007,2.41295,0.88186,0.904837,1.0
1709134464.931143,4162.05127,4112.307617,4127.692383,4.0,4.0,4.0,100.0,,,,,,,,,,,,,,,,,,,,,,,,,,,,,,,,,,,,,,,,,98.252342,31.797039,5.89894,2.523512,5.07137,9.521141,1.258694,1.131651,1.250852,0.977419,35.842682,8.575818,2.454348,0.90314,0.911524,1.0
1709134465.056178,4341.538574,4122.563965,4175.897461,4.0,4.0,4.0,100.0,,,,,,,,,,,,,,,,,,,,,,,,,,,,,,,,,,,,,,,,,94.160339,33.397839,5.851338,2.423945,4.909631,10.685248,1.270041,1.276221,1.418549,0.985785,37.012951,9.345536,2.36773,0.990838,0.939236,1.0
1709134465.181214,4392.820313,4216.410156,4122.05127,4.0,4.0,4.0,100.0,100.0,4.0,4.0,4.0,,,,,,,,,,,,,,,,,,,,,,,,,,,,,,,,,,,,,96.636078,35.340954,6.514915,2.530629,4.728747,11.002192,1.350093,1.401773,1.518725,0.964388,36.703075,9.593795,2.187065,1.104441,0.968749,1.0
1709134465.181214,4392.820313,4216.410156,4122.05127,4.0,4.0,4.0,100.0,100.0,4.0,4.0,4.0,,,,,,,,,,,,,,,,,,,,,,,,,,,,,,,,,,,,,96.636078,35.340954,6.514915,2.530629,4.728747,11.002192,1.350093,1.401773,1.518725,0.964388,36.703075,9.593795,2.187065,1.104441,0.968749,1.0
1709134465.30625,4306.666504,4046.153809,4104.102539,4.0,4.0,4.0,100.0,,,,,,,,,,,,,,,,,,,,,,,,,,,,,,,,,,,,,,,,,108.379272,38.303684,7.920501,2.855628,4.606029,10.321201,1.464439,1.4451,1.505743,0.924833,35.452633,9.286048,1.95249,1.190725,0.989385,1.0
1709134465.431285,4460.512695,4077.435791,4166.666504,4.0,4.0,4.0,100.0,,,,,,,,,,,,,,,,,,,,,,,,,,,,,,,,,,,,,,,,,126.052979,42.168247,9.76907,3.482119,4.575726,9.686799,1.629125,1.386,1.383118,0.882391,33.627747,8.538678,1.704842,1.224255,0.998645,1.0
1709134465.556321,4495.384766,4088.718018,4261.025879,4.0,4.0,4.0,100.0,,,,,,,,,,,,,,,,,,,,,,,,,,,,,,,,,,,,,,,,,141.530884,45.735714,11.597525,4.522416,4.630686,11.414091,1.925858,1.250402,1.207046,0.84684,32.052143,7.576835,1.472933,1.22411,1.001946,1.0
1709134465.681356,4573.333496,3981.025635,4236.922852,4.0,4.0,4.0,100.0,100.0,4.0,4.0,4.0,,,,,,,,,,,,,,,,,,,,,,,,,,,,,,,,,,,,,145.831619,47.56929,13.118022,5.96232,4.731806,17.938667,2.365976,1.085085,1.055381,0.825697,30.002823,6.661444,1.347977,1.250657,1.007838,1.0
1709134465.681356,4573.333496,3981.025635,4236.922852,4.0,4.0,4.0,100.0,100.0,4.0,4.0,4.0,,,,,,,,,,,,,,,,,,,,,,,,,,,,,,,,,,,,,145.831619,47.56929,13.118022,5.96232,4.731806,17.938667,2.365976,1.085085,1.055381,0.825697,30.002823,6.661444,1.347977,1.250657,1.007838,1.0
1709134465.806392,4646.153809,3966.666748,4269.743652,4.0,4.0,4.0,100.0,,,,,,,,,,,,,,,,,,,,,,,,,,,,,,,,,,,,,,,,,135.700333,46.651226,14.128207,7.579682,4.827359,29.342642,2.870117,0.935908,0.989843,0.824943,28.720621,6.010756,1.432086,1.366321,1.023193,1.0
1709134465.931427,4791.794922,4115.384766,4382.563965,4.0,4.0,4.0,100.0,,,,,,,,,,,,,,,,,,,,,,,,,,,,,,,,,,,,,,,,,115.633461,42.722557,14.512531,8.968506,4.846521,43.686142,3.265336,0.831357,1.02896,0.851128,28.658953,5.667859,1.781095,1.586042,1.047478,1.0
1709134466.056463,4624.615234,4148.717773,4387.692383,4.0,4.0,4.0,100.0,,,,,,,,,,,,,,,,,,,,,,,,,,,,,,,,,,,,,,,,,96.634361,36.936615,14.276268,9.686653,4.716128,57.070477,3.425949,0.772803,1.147273,0.909241,31.054939,5.587536,2.348398,1.875309,1.072154,1.0
1709134466.181498,4515.897461,4121.025879,4293.333496,4.0,4.0,4.0,100.0,100.0,4.0,4.0,4.0,,,,,,,,,,,,,,,,,,,,,,,,,,,,,,,,,,,,,89.814392,30.885201,13.614849,9.47051,4.40171,64.896042,3.292782,0.748795,1.291873,0.999981,36.026783,5.668416,2.99687,2.170987,1.086747,1.0
1709134468.682209,4182.563965,4151.794922,4177.94873,4.0,4.0,4.0,100.0,83.333336,3.0,4.0,4.0,,,,,,,,,,,,,,,,,,,,,,,,,,,,,,,,,,,,,117.081406,21.427666,7.830852,5.717965,4.66283,7.056983,2.530034,1.755655,1.067181,0.858087,53.933151,12.162077,5.355618,1.314972,0.595499,1.0
1709134468.807245,4252.820313,4162.05127,4085.128174,4.0,4.0,4.0,100.0,,,,,,,,,,,,,,,,,,,,,,,,,,,,,,,,,,,,,,,,,127.653328,23.046797,9.005708,5.928396,4.863088,8.352544,2.647122,1.804212,1.084329,0.927957,63.25288,12.342981,5.917853,1.45284,0.699911,1.0
1709134468.93228,4702.563965,4163.077148,4301.538574,4.0,4.0,4.0,100.0,,,,,,,,,,,,,,,,,,,,,,,,,,,,,,,,,,,,,,,,,129.762283,22.932539,9.800871,5.975092,5.46347,9.402202,2.682306,2.011207,1.112026,1.049378,66.154816,11.117128,6.246381,1.644233,0.938934,1.0
1709134469.057316,4271.282227,4116.922852,4108.717773,4.0,4.0,4.0,100.0,,,,,,,,,,,,,,,,,,,,,,,,,,,,,,,,,,,,,,,,,121.421371,20.331276,10.041313,5.853613,6.401826,10.252434,2.71226,2.312562,1.195364,1.251182,62.467896,8.957373,6.268891,1.9448,1.359035,1.0
1709134469.182351,4317.436035,4149.230957,4187.179688,4.0,4.0,4.0,100.0,91.666664,3.0,4.0,4.0,,,,,,,,,,,,,,,,,,,,,,,,,,,,,,,,,,,,,110.539543,16.099045,9.689495,5.65747,7.583352,10.934439,2.834124,2.60541,1.356884,1.532724,56.425182,6.622295,5.988864,2.356329,1.942833,1.0
1709134469.182351,4317.436035,4149.230957,4187.179688,4.0,4.0,4.0,100.0,91.666664,3.0,4.0,4.0,,,,,,,,,,,,,,,,,,,,,,,,,,,,,,,,,,,,,110.539543,16.099045,9.689495,5.65747,7.583352,10.934439,2.834124,2.60541,1.356884,1.532724,56.425182,6.622295,5.988864,2.356329,1.942833,1.0
1709134469.307387,4265.641113,4144.615234,4247.692383,4.0,4.0,4.0,100.0,,,,,,,,,,,,,,,,,,,,,,,,,,,,,,,,,,,,,,,,,112.511719,11.929004,8.875101,5.482793,8.861794,11.654823,3.099581,2.767142,1.575085,1.844804,54.773727,4.925579,5.466352,2.802422,2.583288,1.0
1709134469.432422,4328.205078,4138.974121,4262.563965,4.0,4.0,4.0,100.0,,,,,,,,,,,,,,,,,,,,,,,,,,,,,,,,,,,,,,,,,139.218567,9.458817,7.769527,5.364897,10.050758,12.251963,3.463812,2.712495,1.792235,2.100672,61.546745,4.33501,4.786397,3.150016,3.11381,1.0
1709134469.557458,4315.384766,4146.666504,4256.922852,4.0,4.0,4.0,100.0,,,,,,,,,,,,,,,,,,,,,,,,,,,,,,,,,,,,,,,,,188.543716,9.345183,6.532069,5.267919,10.955147,12.684905,3.780975,2.442036,1.932023,2.210877,76.887894,4.741989,4.029738,3.25715,3.373266,1.0
1709134469.682493,4325.641113,4147.179688,4269.230957,4.0,4.0,4.0,100.0,91.666664,3.0,4.0,4.0,,,,,,,,,,,,,,,,,,,,,,,,,,,,,,,,,,,,,246.20311,10.984085,5.264723,5.078478,11.415992,12.568534,3.870889,2.024338,1.928387,2.121739,94.185913,5.51158,3.257705,3.041691,3.277113,1.0
1709134469.682493,4325.641113,4147.179688,4269.230957,4.0,4.0,4.0,100.0,91.666664,3.0,4.0,4.0,,,,,,,,,,,,,,,,,,,,,,,,,,,,,,,,,,,,,246.20311,10.984085,5.264723,5.078478,11.415992,12.568534,3.870889,2.024338,1.928387,2.121739,94.185913,5.51158,3.257705,3.041691,3.277113,1.0
1709134469.807529,4236.922852,4120.0,4204.102539,4.0,4.0,4.0,100.0,,,,,,,,,,,,,,,,,,,,,,,,,,,,,,,,,,,,,,,,,289.215881,13.100689,4.016542,4.701197,11.339232,11.84427,3.614577,1.56423,1.758068,1.843836,106.056564,5.915998,2.500524,2.532828,2.861543,1.0
1709134469.932564,4465.641113,4123.589844,4264.102539,4.0,4.0,4.0,100.0,,,,,,,,,,,,,,,,,,,,,,,,,,,,,,,,,,,,,,,,,301.73233,14.347289,2.848956,4.142258,10.717702,10.507642,3.07583,1.161922,1.46328,1.452002,106.319817,5.591363,1.784925,1.870331,2.269541,1.0
1709134470.0576,4488.717773,4140.0,4315.384766,4.0,4.0,4.0,100.0,,,,,,,,,,,,,,,,,,,,,,,,,,,,,,,,,,,,,,,,,277.581696,14.018356,1.913704,3.512599,9.637677,8.91698,2.425333,0.879391,1.133448,1.050387,94.407982,4.651877,1.168792,1.231662,1.678325,1.0
1709134470.182636,4318.461426,4137.94873,4210.769043,4.0,4.0,4.0,100.0,91.666664,3.0,4.0,4.0,,,,,,,,,,,,,,,,,,,,,,,,,,,,,,,,,,,,,223.430099,12.227934,1.321249,2.999552,8.263164,7.271163,1.803605,0.738208,0.853074,0.725988,72.670601,3.423026,0.731327,0.773005,1.229387,1.0
1709134470.182636,4318.461426,4137.94873,4210.769043,4.0,4.0,4.0,100.0,91.666664,3.0,4.0,4.0,,,,,,,,,,,,,,,,,,,,,,,,,,,,,,,,,,,,,223.430099,12.227934,1.321249,2.999552,8.263164,7.271163,1.803605,0.738208,0.853074,0.725988,72.670601,3.423026,0.731327,0.773005,1.229387,1.0
1709134470.307671,4329.743652,4149.743652,4277.94873,4.0,4.0,4.0,100.0,,,,,,,,,,,,,,,,,,,,,,,,,,,,,,,,,,,,,,,,,156.537766,10.362523,1.108564,2.81777,6.825944,5.929966,1.321471,0.725915,0.673246,0.520206,48.169815,2.427001,0.539393,0.573842,0.988753,1.0
1709134470.432707,4292.307617,4098.974121,4189.743652,4.0,4.0,4.0,100.0,,,,,,,,,,,,,,,,,,,,,,,,,,,,,,,,,,,,,,,,,101.551865,10.098389,1.28892,3.084692,5.623462,4.993098,1.037159,0.812735,0.600617,0.424634,28.389044,2.031034,0.615871,0.623215,0.947142,1.0
1709134470.557742,4273.333496,4107.179688,4194.871582,4.0,4.0,4.0,100.0,,,,,,,,,,,,,,,,,,,,,,,,,,,,,,,,,,,,,,,,,72.236488,12.383046,1.845564,3.75321,4.928743,4.496533,0.957045,0.950208,0.605385,0.403181,17.106176,2.28917,0.930341,0.846573,1.054865,1.0
1709134470.682778,4325.641113,4128.205078,4278.461426,4.0,4.0,4.0,100.0,91.666664,3.0,4.0,4.0,,,,,,,,,,,,,,,,,,,,,,,,,,,,,,,,,,,,,70.912552,16.756889,2.687794,4.665057,4.869542,4.354651,1.034062,1.081866,0.648357,0.423029,14.319966,2.966496,1.409627,1.165608,1.257585,1.0
1709134470.682778,4325.641113,4128.205078,4278.461426,4.0,4.0,4.0,100.0,91.666664,3.0,4.0,4.0,,,,,,,,,,,,,,,,,,,,,,,,,,,,,,,,,,,,,70.912552,16.756889,2.687794,4.665057,4.869542,4.354651,1.034062,1.081866,0.648357,0.423029,14.319966,2.966496,1.409627,1.165608,1.257585,1.0
1709134470.807813,4286.666504,4084.615479,4246.666504,4.0,4.0,4.0,100.0,,,,,,,,,,,,,,,,,,,,,,,,,,,,,,,,,,,,,,,,,84.213951,21.396309,3.632831,5.626183,5.345486,4.426349,1.234688,1.169782,0.693208,0.458465,16.192636,3.697556,1.927992,1.493162,1.488459,1.0
1709134470.932849,4317.94873,4073.846191,4133.333496,4.0,4.0,4.0,100.0,,,,,,,,,,,,,,,,,,,,,,,,,,,,,,,,,,,,,,,,,97.576881,24.18906,4.426524,6.440046,6.066621,4.499281,1.497876,1.1803,0.711054,0.490641,18.609095,4.17019,2.320043,1.726893,1.668509,1.0
1709134471.057884,4371.282227,4083.076904,4304.102539,4.0,4.0,4.0,100.0,,,,,,,,,,,,,,,,,,,,,,,,,,,,,,,,,,,,,,,,,101.866371,23.424013,4.835356,6.956574,6.670808,4.456621,1.741262,1.105853,0.696679,0.513075,19.232956,4.328804,2.47054,1.800712,1.73131,1.0
1709134471.18292,4337.436035,4129.230957,4297.436035,4.0,4.0,4.0,100.0,100.0,4.0,4.0,4.0,,,,,,,,,,,,,,,,,,,,,,,,,,,,,,,,,,,,,94.556015,19.55649,4.83221,7.090919,6.897252,4.228228,1.881123,0.956876,0.670315,0.528995,17.952888,4.244914,2.345706,1.702041,1.647854,1.0
1709134471.18292,4337.436035,4129.230957,4297.436035,4.0,4.0,4.0,100.0,100.0,4.0,4.0,4.0,,,,,,,,,,,,,,,,,,,,,,,,,,,,,,,,,,,,,94.556015,19.55649,4.83221,7.090919,6.897252,4.228228,1.881123,0.956876,0.670315,0.528995,17.952888,4.244914,2.345706,1.702041,1.647854,1.0
1709134471.307955,4290.769043,4103.589844,4262.563965,4.0,4.0,4.0,100.0,,,,,,,,,,,,,,,,,,,,,,,,,,,,,,,,,,,,,,,,,77.565086,13.965261,4.645505,6.853134,6.681545,3.835391,1.896275,0.797773,0.659422,0.549133,15.140611,4.040945,2.019526,1.485511,1.441698,1.0
1709134471.432991,4268.717773,4208.717773,4296.410156,4.0,4.0,4.0,100.0,,,,,,,,,,,,,,,,,,,,,,,,,,,,,,,,,,,,,,,,,58.570873,9.50687,4.872683,6.428807,6.181456,3.350376,1.816861,0.711149,0.68227,0.583855,12.04556,3.829205,1.655692,1.261513,1.18077,1.0
1709134471.558026,4443.589844,4084.102539,4321.025879,4.0,4.0,4.0,100.0,,,,,,,,,,,,,,,,,,,,,,,,,,,,,,,,,,,,,,,,,45.770557,8.482097,6.096311,6.095806,5.667293,2.91894,1.729669,0.752969,0.741939,0.634976,10.437263,3.71873,1.398967,1.132213,0.945026,1.0
1709134471.683062,4556.410156,4151.282227,4508.717773,4.0,4.0,4.0,100.0,91.666664,3.0,4.0,4.0,,,,,,,,,,,,,,,,,,,,,,,,,,,,,,,,,,,,,43.688175,11.269932,8.43918,6.062521,5.34081,2.914432,1.790299,0.944794,0.832546,0.694008,11.450522,3.77017,1.324729,1.138525,0.79411,1.0
1709134471.683062,4556.410156,4151.282227,4508.717773,4.0,4.0,4.0,100.0,91.666664,3.0,4.0,4.0,,,,,,,,,,,,,,,,,,,,,,,,,,,,,,,,,,,,,43.688175,11.269932,8.43918,6.062521,5.34081,2.914432,1.790299,0.944794,0.832546,0.694008,11.450522,3.77017,1.324729,1.138525,0.79411,1.0
1709134471.808097,4307.179688,4161.538574,4366.153809,4.0,4.0,4.0,100.0,,,,,,,,,,,,,,,,,,,,,,,,,,,,,,,,,,,,,,,,,49.881836,15.973269,11.404704,6.302032,5.238459,4.366128,2.146446,1.239708,0.952994,0.750999,14.988956,3.940342,1.486076,1.242646,0.751076,1.0
1709134471.933133,4331.794922,4152.820313,4418.461426,4.0,4.0,4.0,100.0,,,,,,,,,,,,,,,,,,,,,,,,,,,,,,,,,,,,,,,,,62.012558,20.641289,14.426026,6.620758,5.300884,8.294118,2.813504,1.544626,1.107603,0.797159,20.830931,4.31695,1.878069,1.360601,0.805632,1.0
1709134472.058169,4328.205078,4169.743652,4366.153809,4.0,4.0,4.0,100.0,,,,,,,,,,,,,,,,,,,,,,,,,,,,,,,,,,,,,,,,,81.983841,24.518478,17.105543,6.817596,5.453539,14.860934,3.637134,1.748495,1.292354,0.824777,30.895273,5.098444,2.47614,1.430258,0.930422,1.0
1709134472.183204,4369.230957,4196.922852,4443.589844,4.0,4.0,4.0,100.0,100.0,4.0,4.0,4.0,,,,,,,,,,,,,,,,,,,,,,,,,,,,,,,,,,,,,113.108856,27.684027,19.165794,6.799073,5.653481,23.037886,4.3513,1.772211,1.482623,0.827657,45.534142,6.28202,3.197326,1.436232,1.096413,1.0
1709134472.183204,4369.230957,4196.922852,4443.589844,4.0,4.0,4.0,100.0,100.0,4.0,4.0,4.0,,,,,,,,,,,,,,,,,,,,,,,,,,,,,,,,,,,,,113.108856,27.684027,19.165794,6.799073,5.653481,23.037886,4.3513,1.772211,1.482623,0.827657,45.534142,6.28202,3.197326,1.436232,1.096413,1.0
1709134472.30824,4352.820313,4167.692383,4432.307617,4.0,4.0,4.0,100.0,,,,,,,,,,,,,,,,,,,,,,,,,,,,,,,,,,,,,,,,,154.562363,30.355225,20.468756,6.615496,5.912962,30.628614,4.692976,1.605835,1.628647,0.804588,64.347862,7.714573,3.888655,1.395563,1.273941,1.0
1709134472.433275,4269.743652,4145.641113,4367.179688,4.0,4.0,4.0,100.0,,,,,,,,,,,,,,,,,,,,,,,,,,,,,,,,,,,,,,,,,197.993881,32.167233,20.799622,6.358843,6.260997,35.335037,4.522005,1.309946,1.67403,0.760628,82.471634,9.002052,4.3469,1.343221,1.429217,1.0
1709134472.558311,4431.282227,4207.179688,4274.358887,4.0,4.0,4.0,100.0,,,,,,,,,,,,,,,,,,,,,,,,,,,,,,,,,,,,,,,,,230.396332,32.300915,19.976776,6.178688,6.677335,35.377625,3.889908,0.977306,1.58389,0.706429,95.91114,9.657532,4.406325,1.305342,1.528878,1.0
1709134472.683346,4442.563965,4156.410156,4252.307617,4.0,4.0,4.0,100.0,75.0,1.0,4.0,4.0,1.0,0.252302,-2.241884,-3.715533,0.726168,1.0,0.351215,0.178509,-0.618341,1.481087,1.0,0.193129,5.987125,2.69872,17.783208,0.227009,1.0,0.420893,-0.139251,-0.348897,0.15204,1.0,0.44161,0.331959,-0.845229,1.809804,1.0,0.497817,6.575504,-33.38977,47.230262,1.0,0.141897,0.490423,0.470095,0.62708,238.12381,29.956459,18.069668,6.250168,7.1316,30.907324,2.997935,0.705861,1.372746,0.661988,99.361099,9.368706,4.019022,1.281336,1.563856,1.0
1709134472.683346,4442.563965,4156.410156,4252.307617,4.0,4.0,4.0,100.0,75.0,1.0,4.0,4.0,1.0,0.252302,-2.241884,-3.715533,0.726168,1.0,0.351215,0.178509,-0.618341,1.481087,1.0,0.193129,5.987125,2.69872,17.783208,0.227009,1.0,0.420893,-0.139251,-0.348897,0.15204,1.0,0.44161,0.331959,-0.845229,1.809804,1.0,0.497817,6.575504,-33.38977,47.230262,1.0,0.141897,0.490423,0.470095,0.62708,238.12381,29.956459,18.069668,6.250168,7.1316,30.907324,2.997935,0.705861,1.372746,0.661988,99.361099,9.368706,4.019022,1.281336,1.563856,1.0
1709134472.808382,4424.102539,4153.333496,4297.94873,4.0,4.0,4.0,100.0,,,,,,,,,,,,,,,,,,,,,,,,,,,,,,,,,,,,,,,,,216.65094,25.099258,15.457107,6.621165,7.71975,23.160143,2.109046,0.583,1.106881,0.656688,90.814156,8.223312,3.334063,1.256214,1.573751,1.0
1709134472.933417,4403.077148,4166.153809,4378.461426,4.0,4.0,4.0,100.0,,,,,,,,,,,,,,,,,,,,,,,,,,,,,,,,,,,,,,,,,171.456497,18.523176,12.779686,7.189045,8.783782,14.95163,1.464718,0.645537,0.87524,0.713037,72.490547,6.584681,2.601008,1.214048,1.625129,1.0
1709134473.058453,4471.282227,4186.153809,4436.410156,4.0,4.0,4.0,100.0,,,,,,,,,,,,,,,,,,,,,,,,,,,,,,,,,,,,,,,,,116.677429,11.683804,10.733718,7.816935,10.698701,8.341027,1.203907,0.882055,0.750395,0.828932,50.47047,4.99108,2.044024,1.151793,1.764399,1.0
1709134473.183488,4450.769043,4190.769043,4429.743652,4.0,4.0,4.0,100.0,75.0,1.0,4.0,4.0,,,,,,,,,,,,,,,,,,,,,,,,,,,,,,,,,,,,,68.27182,6.372274,9.74294,8.364563,13.510323,4.721986,1.30801,1.240769,0.749102,0.972319,30.917271,3.944411,1.784378,1.08188,1.980211,1.0
1709134473.183488,4450.769043,4190.769043,4429.743652,4.0,4.0,4.0,100.0,75.0,1.0,4.0,4.0,,,,,,,,,,,,,,,,,,,,,,,,,,,,,,,,,,,,,68.27182,6.372274,9.74294,8.364563,13.510323,4.721986,1.30801,1.240769,0.749102,0.972319,30.917271,3.944411,1.784378,1.08188,1.980211,1.0
1709134473.308524,4422.563965,4163.589844,4388.205078,4.0,4.0,4.0,100.0,,,,,,,,,,,,,,,,,,,,,,,,,,,,,,,,,,,,,,,,,36.661118,3.578189,9.617497,8.766267,16.738005,3.580024,1.607559,1.631681,0.824195,1.090565,17.157003,3.627407,1.784577,1.016871,2.202723,1.0
1709134473.43356,4470.256348,4176.410156,4384.615234,4.0,4.0,4.0,100.0,,,,,,,,,,,,,,,,,,,,,,,,,,,,,,,,,,,,,,,,,21.972654,2.670665,9.567076,9.037758,19.456017,3.663326,1.873552,1.945969,0.897101,1.134305,9.855721,3.72011,1.883623,0.954832,2.332203,1.0
1709134473.558595,4401.538574,4155.384766,4344.102539,4.0,4.0,4.0,100.0,,,,,,,,,,,,,,,,,,,,,,,,,,,,,,,,,,,,,,,,,17.001076,2.47592,8.827227,9.18122,20.73147,3.93954,1.955245,2.098392,0.914163,1.081027,6.706241,3.756276,1.923266,0.891932,2.292405,1.0
1709134473.683631,4414.871582,4177.94873,4374.871582,4.0,4.0,4.0,100.0,75.0,1.0,4.0,4.0,,,,,,,,,,,,,,,,,,,,,,,,,,,,,,,,,,,,,14.019391,2.270691,7.251891,9.166127,20.204838,4.125128,1.809226,2.068425,0.87965,0.947685,5.430965,3.469007,1.870825,0.840613,2.075695,1.0
1709134473.683631,4414.871582,4177.94873,4374.871582,4.0,4.0,4.0,100.0,75.0,1.0,4.0,4.0,,,,,,,,,,,,,,,,,,,,,,,,,,,,,,,,,,,,,14.019391,2.270691,7.251891,9.166127,20.204838,4.125128,1.809226,2.068425,0.87965,0.947685,5.430965,3.469007,1.870825,0.840613,2.075695,1.0
1709134473.808666,4452.820313,4176.922852,4394.358887,4.0,4.0,4.0,100.0,,,,,,,,,,,,,,,,,,,,,,,,,,,,,,,,,,,,,,,,,10.187171,1.992717,5.218671,8.929493,18.3743,4.227046,1.464863,1.888007,0.835324,0.778531,4.603633,2.905454,1.768669,0.828136,1.747735,1.0
1709134473.933702,4416.922852,4176.922852,4398.974121,4.0,4.0,4.0,100.0,,,,,,,,,,,,,,,,,,,,,,,,,,,,,,,,,,,,,,,,,6.477685,1.740023,3.375422,8.390309,16.258217,4.251868,1.047535,1.619724,0.81814,0.628128,3.940324,2.233608,1.682868,0.870295,1.412225,1.0
1709134474.058737,4358.974121,4135.897461,4258.461426,4.0,4.0,4.0,100.0,,,,,,,,,,,,,,,,,,,,,,,,,,,,,,,,,,,,,,,,,3.84756,1.595771,2.177676,7.522725,14.796779,4.200727,0.693309,1.32865,0.837194,0.547757,3.408128,1.662698,1.655047,0.959252,1.159919,1.0
1709134474.183773,4344.615234,4124.615234,4275.384766,4.0,4.0,4.0,100.0,75.0,1.0,4.0,4.0,,,,,,,,,,,,,,,,,,,,,,,,,,,,,,,,,,,,,2.492639,1.596685,1.740648,6.386457,14.356333,4.022293,0.483111,1.077523,0.872698,0.571917,3.050632,1.336295,1.664848,1.064573,1.033976,1.0
1709134474.183773,4344.615234,4124.615234,4275.384766,4.0,4.0,4.0,100.0,75.0,1.0,4.0,4.0,,,,,,,,,,,,,,,,,,,,,,,,,,,,,,,,,,,,,2.492639,1.596685,1.740648,6.386457,14.356333,4.022293,0.483111,1.077523,0.872698,0.571917,3.050632,1.336295,1.664848,1.064573,1.033976,1.0
1709134474.308808,4644.102539,4211.282227,4551.282227,4.0,4.0,4.0,100.0,,,,,,,,,,,,,,,,,,,,,,,,,,,,,,,,,,,,,,,,,2.382241,1.694844,1.852483,5.170398,14.580751,3.712248,0.43784,0.903341,0.889319,0.70541,2.830049,1.282617,1.643895,1.14106,1.025123,1.0
1709134474.433844,4454.871582,4131.282227,4369.230957,4.0,4.0,4.0,100.0,,,,,,,,,,,,,,,,,,,,,,,,,,,,,,,,,,,,,,,,,3.711999,2.121727,2.211395,4.115968,14.6863,3.356172,0.522794,0.792745,0.854381,0.919032,3.003666,1.664443,1.552755,1.147607,1.092594,1.0
1709134474.55888,4295.384766,4115.384766,4305.128418,4.0,4.0,4.0,100.0,,,,,,,,,,,,,,,,,,,,,,,,,,,,,,,,,,,,,,,,,11.087981,4.09385,2.77574,3.422884,14.026431,3.26124,0.669925,0.712732,0.76539,1.158408,6.239784,2.9882,1.429212,1.081543,1.196816,1.0
1709134474.683915,4304.615234,4229.743652,4249.743652,4.0,4.0,4.0,100.0,91.666664,3.0,4.0,4.0,,,,,,,,,,,,,,,,,,,,,,,,,,,,,,,,,,,,,31.848051,9.132952,3.663297,3.189861,12.552901,3.753341,0.828945,0.643148,0.65662,1.362023,16.699472,5.811132,1.351938,0.978115,1.312357,0.0
1709134474.683915,4304.615234,4229.743652,4249.743652,4.0,4.0,4.0,100.0,91.666664,3.0,4.0,4.0,,,,,,,,,,,,,,,,,,,,,,,,,,,,,,,,,,,,,31.848051,9.132952,3.663297,3.189861,12.552901,3.753341,0.828945,0.643148,0.65662,1.362023,16.699472,5.811132,1.351938,0.978115,1.312357,0.0
1709134474.808951,4315.384766,4072.307617,4263.589844,4.0,4.0,4.0,100.0,,,,,,,,,,,,,,,,,,,,,,,,,,,,,,,,,,,,,,,,,69.44754,17.829699,4.86029,3.352953,10.768357,4.883286,1.012504,0.577713,0.582032,1.48,36.363876,10.190474,1.3829,0.883954,1.414584,0.0
1709134474.933986,4340.0,4118.461426,4303.589844,4.0,4.0,4.0,100.0,,,,,,,,,,,,,,,,,,,,,,,,,,,,,,,,,,,,,,,,,119.272308,29.047123,6.146197,3.718277,9.257635,6.472282,1.278135,0.544751,0.587162,1.493767,63.27396,15.424572,1.519621,0.832071,1.475736,0.0
1709134475.059022,4694.871582,4128.717773,4506.666504,4.0,4.0,4.0,100.0,,,,,,,,,,,,,,,,,,,,,,,,,,,,,,,,,,,,,,,,,169.260788,39.992645,7.186878,4.063057,8.342342,8.490133,1.691016,0.619029,0.686079,1.419716,91.456802,20.14032,1.708201,0.827465,1.47399,0.0
1709134475.184057,4327.692383,4144.102539,4309.230957,4.0,4.0,4.0,100.0,91.666664,3.0,4.0,4.0,,,,,,,,,,,,,,,,,,,,,,,,,,,,,,,,,,,,,203.783203,47.147476,7.549262,4.242325,7.976659,11.093021,2.276562,0.892856,0.848656,1.294659,112.492363,22.838339,1.855359,0.851577,1.403185,0.0
1709134475.184057,4327.692383,4144.102539,4309.230957,4.0,4.0,4.0,100.0,91.666664,3.0,4.0,4.0,,,,,,,,,,,,,,,,,,,,,,,,,,,,,,,,,,,,,203.783203,47.147476,7.549262,4.242325,7.976659,11.093021,2.276562,0.892856,0.848656,1.294659,112.492363,22.838339,1.855359,0.851577,1.403185,0.0
1709134475.309093,4326.153809,4130.256348,4269.743652,4.0,4.0,4.0,100.0,,,,,,,,,,,,,,,,,,,,,,,,,,,,,,,,,,,,,,,,,215.263855,48.757717,7.083465,4.234656,7.845821,14.294113,2.968436,1.398941,1.013703,1.15485,121.33889,22.595675,1.900806,0.879093,1.280568,0.0
1709134475.434128,4317.436035,4143.589844,4271.282227,4.0,4.0,4.0,100.0,,,,,,,,,,,,,,,,,,,,,,,,,,,,,,,,,,,,,,,,,209.849686,46.436062,5.933666,4.129442,7.623106,17.731333,3.621459,2.045598,1.116174,1.018778,118.722946,19.872927,1.857427,0.890371,1.144979,0.0
1709134475.559164,4295.897461,4137.436035,4295.897461,4.0,4.0,4.0,100.0,,,,,,,,,,,,,,,,,,,,,,,,,,,,,,,,,,,,,,,,,202.446487,43.528343,4.47084,4.099702,7.211793,20.56307,4.069854,2.636886,1.114706,0.888926,109.861725,16.05027,1.766435,0.882359,1.046908,0.0
1709134475.684199,4327.179688,4132.307617,4293.846191,4.0,4.0,4.0,100.0,91.666664,3.0,4.0,4.0,,,,,,,,,,,,,,,,,,,,,,,,,,,,,,,,,,,,,206.380432,42.887306,3.149295,4.319088,6.730625,21.841869,4.190588,2.960006,1.008794,0.764723,101.280365,12.598741,1.660429,0.877316,1.02382,0.0
1709134475.684199,4327.179688,4132.307617,4293.846191,4.0,4.0,4.0,100.0,91.666664,3.0,4.0,4.0,,,,,,,,,,,,,,,,,,,,,,,,,,,,,,,,,,,,,206.380432,42.887306,3.149295,4.319088,6.730625,21.841869,4.190588,2.960006,1.008794,0.764723,101.280365,12.598741,1.660429,0.877316,1.02382,0.0
1709134475.809235,4334.871582,4134.358887,4305.128418,4.0,4.0,4.0,100.0,,,,,,,,,,,,,,,,,,,,,,,,,,,,,,,,,,,,,,,,,223.335846,45.014267,2.265484,4.86917,6.291266,20.928846,3.942163,2.900369,0.837417,0.654924,96.209328,10.444667,1.565248,0.903595,1.083045,0.0
1709134475.934271,4322.05127,4135.897461,4303.589844,4.0,4.0,4.0,100.0,,,,,,,,,,,,,,,,,,,,,,,,,,,,,,,,,,,,,,,,,243.154556,47.739643,1.843873,5.748747,5.910325,17.772573,3.393814,2.48498,0.657476,0.577954,93.902374,9.560333,1.472826,0.978497,1.198963,0.0
1709134476.059306,4248.717773,4149.230957,4281.538574,4.0,4.0,4.0,100.0,,,,,,,,,,,,,,,,,,,,,,,,,,,,,,,,,,,,,,,,,248.129456,47.650406,1.703172,6.884491,5.574444,13.180636,2.708761,1.861912,0.513043,0.548311,89.174713,9.201036,1.351408,1.091829,1.325672,-1.0
1709134476.184342,4614.358887,4155.897461,4474.358887,4.0,4.0,4.0,100.0,91.666664,3.0,4.0,4.0,,,,,,,,,,,,,,,,,,,,,,,,,,,,,,,,,,,,,226.335632,42.313984,1.591277,8.122683,5.279414,8.323021,2.089987,1.248057,0.428346,0.56255,78.05825,8.476686,1.175895,1.20415,1.412453,-1.0
1709134476.184342,4614.358887,4155.897461,4474.358887,4.0,4.0,4.0,100.0,91.666664,3.0,4.0,4.0,,,,,,,,,,,,,,,,,,,,,,,,,,,,,,,,,,,,,226.335632,42.313984,1.591277,8.122683,5.279414,8.323021,2.089987,1.248057,0.428346,0.56255,78.05825,8.476686,1.175895,1.20415,1.412453,-1.0
1709134476.309377,4353.333496,4140.0,4295.897461,4.0,4.0,4.0,100.0,,,,,,,,,,,,,,,,,,,,,,,,,,,,,,,,,,,,,,,,,176.824387,32.641243,1.351333,9.252563,5.03759,4.45044,1.68219,0.840385,0.409316,0.601862,59.518021,7.165328,0.969057,1.274939,1.427363,-1.0
1709134476.434413,4311.282227,4146.153809,4261.538574,4.0,4.0,4.0,100.0,,,,,,,,,,,,,,,,,,,,,,,,,,,,,,,,,,,,,,,,,115.920998,22.788078,1.109259,10.154466,4.870533,2.18766,1.527753,0.720991,0.456423,0.64535,38.836426,5.85483,0.795137,1.301232,1.371068,-1.0
1709134476.559448,4291.794922,4130.256348,4242.05127,4.0,4.0,4.0,100.0,,,,,,,,,,,,,,,,,,,,,,,,,,,,,,,,,,,,,,,,,68.426247,16.508167,0.986086,10.804933,4.813386,1.40589,1.546829,0.823306,0.568771,0.68705,24.268925,5.160204,0.705925,1.306952,1.269027,-1.0
1709134476.684484,4326.153809,4122.05127,4259.487305,4.0,4.0,4.0,100.0,100.0,4.0,4.0,4.0,,,,,,,,,,,,,,,,,,,,,,,,,,,,,,,,,,,,,54.766563,15.858872,1.045514,11.208019,4.882942,1.475513,1.609696,0.99208,0.7352,0.733804,22.417843,5.441664,0.722285,1.325391,1.154573,-1.0
1709134476.684484,4326.153809,4122.05127,4259.487305,4.0,4.0,4.0,100.0,100.0,4.0,4.0,4.0,,,,,,,,,,,,,,,,,,,,,,,,,,,,,,,,,,,,,54.766563,15.858872,1.045514,11.208019,4.882942,1.475513,1.609696,0.99208,0.7352,0.733804,22.417843,5.441664,0.722285,1.325391,1.154573,-1.0
1709134476.809519,4301.025879,4157.436035,4261.025879,4.0,4.0,4.0,100.0,,,,,,,,,,,,,,,,,,,,,,,,,,,,,,,,,,,,,,,,,77.711349,20.237303,1.287919,11.32903,5.027201,1.864566,1.643835,1.107711,0.924107,0.789693,33.638828,6.588724,0.825104,1.371343,1.050332,-1.0
1709134476.934555,4348.717773,4152.820313,4222.05127,4.0,4.0,4.0,100.0,,,,,,,,,,,,,,,,,,,,,,,,,,,,,,,,,,,,,,,,,121.595901,26.841135,1.644613,11.064242,5.139923,2.278968,1.632589,1.127507,1.090138,0.848155,51.842651,8.11126,0.950708,1.429903,0.959184,-1.0
1709134477.05959,4458.974121,4151.794922,4208.205078,4.0,4.0,4.0,100.0,,,,,,,,,,,,,,,,,,,,,,,,,,,,,,,,,,,,,,,,,162.054886,32.220634,2.012443,10.402331,5.143229,2.503388,1.577623,1.061227,1.18847,0.894279,67.733818,9.339704,1.049332,1.463046,0.869654,-1.0
1709134477.184626,4845.128418,4200.0,4500.0,4.0,4.0,4.0,100.0,100.0,4.0,4.0,4.0,,,,,,,,,,,,,,,,,,,,,,,,,,,,,,,,,,,,,180.517059,33.934589,2.301972,9.471326,4.996541,2.522106,1.510164,0.97166,1.196945,0.911269,74.329231,9.777963,1.133612,1.427013,0.770313,-1.0
1709134477.184626,4845.128418,4200.0,4500.0,4.0,4.0,4.0,100.0,100.0,4.0,4.0,4.0,,,,,,,,,,,,,,,,,,,,,,,,,,,,,,,,,,,,,180.517059,33.934589,2.301972,9.471326,4.996541,2.522106,1.510164,0.97166,1.196945,0.911269,74.329231,9.777963,1.133612,1.427013,0.770313,-1.0
1709134477.309661,4403.077148,4177.94873,4283.589844,4.0,4.0,4.0,100.0,,,,,,,,,,,,,,,,,,,,,,,,,,,,,,,,,,,,,,,,,172.866821,31.165863,2.446638,8.492356,4.715232,2.33368,1.474072,0.942101,1.127056,0.890683,71.531685,9.347905,1.2211,1.300032,0.662757,-1.0
1709134477.434697,4292.307617,4129.230957,4194.871582,4.0,4.0,4.0,100.0,,,,,,,,,,,,,,,,,,,,,,,,,,,,,,,,,,,,,,,,,148.054886,26.28875,2.537011,7.758602,4.366337,2.041004,1.511874,1.020071,1.015714,0.83703,62.311596,8.733801,1.339813,1.109781,0.570563,-1.0
1709134477.559732,4309.743652,4148.717773,4186.666504,4.0,4.0,4.0,100.0,,,,,,,,,,,,,,,,,,,,,,,,,,,,,,,,,,,,,,,,,120.80912,22.978779,2.720649,7.470664,4.014751,1.728875,1.628727,1.19639,0.906757,0.766479,52.222134,8.781813,1.511849,0.927282,0.529294,-1.0
1709134477.684768,4383.589844,4099.487305,4164.102539,4.0,4.0,4.0,100.0,100.0,4.0,4.0,4.0,,,,,,,,,,,,,,,,,,,,,,,,,,,,,,,,,,,,,108.241493,24.097095,3.124507,7.603446,3.69172,1.580291,1.792039,1.411343,0.830254,0.698539,46.797867,9.965223,1.706572,0.819163,0.565324,-1.0
1709134477.684768,4383.589844,4099.487305,4164.102539,4.0,4.0,4.0,100.0,100.0,4.0,4.0,4.0,,,,,,,,,,,,,,,,,,,,,,,,,,,,,,,,,,,,,108.241493,24.097095,3.124507,7.603446,3.69172,1.580291,1.792039,1.411343,0.830254,0.698539,46.797867,9.965223,1.706572,0.819163,0.565324,-1.0
1709134477.809804,4696.922852,4154.871582,4434.358887,4.0,4.0,4.0,100.0,,,,,,,,,,,,,,,,,,,,,,,,,,,,,,,,,,,,,,,,,117.879333,30.119385,3.789428,7.95203,3.414677,2.028828,2.00502,1.578299,0.786725,0.645756,48.654922,12.199388,1.875225,0.808517,0.671863,-1.0
1709134477.934839,4190.769043,4124.615234,4219.487305,4.0,4.0,4.0,100.0,,,,,,,,,,,,,,,,,,,,,,,,,,,,,,,,,,,,,,,,,144.518356,39.016342,4.720758,8.200536,3.200772,3.654865,2.329617,1.644407,0.75914,0.612531,55.112057,14.905656,2.033628,0.879893,0.806862,-1.0
1709134478.059875,4121.538574,4104.102539,4125.641113,4.0,4.0,4.0,100.0,,,,,,,,,,,,,,,,,,,,,,,,,,,,,,,,,,,,,,,,,173.507431,47.062141,6.058527,8.072576,3.040967,6.660158,2.830581,1.607168,0.730437,0.598363,61.941505,16.983442,2.268927,0.985838,0.917194,-1.0
1709134478.18491,4172.820313,4104.102539,4173.846191,4.0,4.0,4.0,100.0,91.666664,3.0,4.0,4.0,,,,,,,,,,,,,,,,,,,,,,,,,,,,,,,,,,,,,195.915802,51.415119,8.070521,7.514315,2.972741,10.538154,3.476327,1.510373,0.697595,0.59962,66.496933,17.563122,2.684417,1.081061,0.971174,-1.0
1709134478.18491,4172.820313,4104.102539,4173.846191,4.0,4.0,4.0,100.0,91.666664,3.0,4.0,4.0,,,,,,,,,,,,,,,,,,,,,,,,,,,,,,,,,,,,,195.915802,51.415119,8.070521,7.514315,2.972741,10.538154,3.476327,1.510373,0.697595,0.59962,66.496933,17.563122,2.684417,1.081061,0.971174,-1.0
1709134478.309946,4175.384766,4112.307617,4212.820313,4.0,4.0,4.0,100.0,,,,,,,,,,,,,,,,,,,,,,,,,,,,,,,,,,,,,,,,,210.646469,51.060867,10.93742,6.701525,3.130743,14.279398,4.120177,1.409984,0.678886,0.610471,68.445862,16.351927,3.321197,1.142426,0.973296,-1.0
1709134478.434981,4135.384766,4098.461426,4165.641113,4.0,4.0,4.0,100.0,,,,,,,,,,,,,,,,,,,,,,,,,,,,,,,,,,,,,,,,,221.196091,47.436123,14.299478,5.832085,3.647061,16.597013,4.519035,1.34391,0.699585,0.6204,68.458275,13.951507,4.046594,1.1586,0.951595,-1.0
1709134478.560017,4439.487305,4126.153809,4233.333496,4.0,4.0,4.0,100.0,,,,,,,,,,,,,,,,,,,,,,,,,,,,,,,,,,,,,,,,,231.256653,41.989937,17.309271,5.028027,4.511935,16.818626,4.476927,1.306698,0.766038,0.61625,68.444397,11.221852,4.591748,1.120579,0.935997,-1.0
1709134478.685052,4478.461426,4168.205078,4325.641113,4.0,4.0,4.0,100.0,91.666664,3.0,4.0,4.0,,,,,,,,,,,,,,,,,,,,,,,,,,,,,,,,,,,,,240.452881,35.945732,18.968048,4.354481,5.530226,15.137112,3.970227,1.267485,0.858197,0.587847,68.695236,8.799138,4.699549,1.030937,0.937904,-1.0
1709134478.685052,4478.461426,4168.205078,4325.641113,4.0,4.0,4.0,100.0,91.666664,3.0,4.0,4.0,,,,,,,,,,,,,,,,,,,,,,,,,,,,,,,,,,,,,240.452881,35.945732,18.968048,4.354481,5.530226,15.137112,3.970227,1.267485,0.858197,0.587847,68.695236,8.799138,4.699549,1.030937,0.937904,-1.0
1709134478.810088,4692.820313,4181.025879,4519.487305,4.0,4.0,4.0,100.0,,,,,,,,,,,,,,,,,,,,,,,,,,,,,,,,,,,,,,,,,244.870483,29.978018,18.566942,3.823771,6.402328,12.401765,3.147578,1.206936,0.948076,0.536395,67.969147,6.942616,4.265455,0.913109,0.9465,-1.0
1709134478.935123,4233.333496,4131.282227,4247.179688,4.0,4.0,4.0,100.0,,,,,,,,,,,,,,,,,,,,,,,,,,,,,,,,,,,,,,,,,240.176559,23.925518,15.953118,3.438465,6.886066,9.751963,2.285485,1.123631,1.012936,0.476251,64.632614,5.475748,3.38009,0.802554,0.946907,-1.0
1709134479.060159,4256.922852,4125.128418,4216.922852,4.0,4.0,4.0,100.0,,,,,,,,,,,,,,,,,,,,,,,,,,,,,,,,,,,,,,,,,229.343491,19.056801,11.988954,3.188382,6.977483,8.08171,1.661767,1.039669,1.048505,0.42907,59.275528,4.348753,2.364669,0.74282,0.951467,-1.0
1709134479.185194,4173.846191,4099.487305,4220.0,4.0,4.0,4.0,100.0,91.666664,3.0,4.0,4.0,,,,,,,,,,,,,,,,,,,,,,,,,,,,,,,,,,,,,220.621185,17.519051,8.024892,3.056747,6.946082,7.531188,1.416609,0.965747,1.060577,0.414367,54.089489,3.485438,1.53669,0.7735,1.000383,-1.0
1709134479.185194,4173.846191,4099.487305,4220.0,4.0,4.0,4.0,100.0,91.666664,3.0,4.0,4.0,,,,,,,,,,,,,,,,,,,,,,,,,,,,,,,,,,,,,220.621185,17.519051,8.024892,3.056747,6.946082,7.531188,1.416609,0.965747,1.060577,0.414367,54.089489,3.485438,1.53669,0.7735,1.000383,-1.0
1709134479.31023,4235.897461,4126.153809,4246.666504,4.0,4.0,4.0,100.0,,,,,,,,,,,,,,,,,,,,,,,,,,,,,,,,,,,,,,,,,224.727509,21.606243,5.087098,3.018809,7.145553,7.612401,1.484915,0.894184,1.064893,0.441714,53.333954,3.176379,1.081224,0.903336,1.135898,-1.0
1709134479.435265,4273.333496,4175.897461,4275.384766,4.0,4.0,4.0,100.0,,,,,,,,,,,,,,,,,,,,,,,,,,,,,,,,,,,,,,,,,248.378296,31.403442,3.685176,3.09772,7.765975,7.521092,1.689869,0.833421,1.075974,0.505745,59.475014,3.526478,1.033957,1.099443,1.357171,-1.0
1709134479.560301,4342.563965,4205.128418,4388.205078,4.0,4.0,4.0,100.0,,,,,,,,,,,,,,,,,,,,,,,,,,,,,,,,,,,,,,,,,277.7659,43.760532,3.481955,3.315218,8.681623,6.716956,1.889832,0.807553,1.102025,0.587263,69.36338,4.371532,1.229587,1.300642,1.600722,-1.0
1709134479.685337,4287.179688,4169.743652,4318.461426,4.0,4.0,4.0,100.0,91.666664,3.0,4.0,4.0,,,,,,,,,,,,,,,,,,,,,,,,,,,,,,,,,,,,,293.90033,53.711987,3.739305,3.675396,9.498333,5.365876,2.038729,0.840432,1.141938,0.659983,77.658226,5.304686,1.463823,1.445284,1.766824,-1.0
1709134479.685337,4287.179688,4169.743652,4318.461426,4.0,4.0,4.0,100.0,91.666664,3.0,4.0,4.0,,,,,,,,,,,,,,,,,,,,,,,,,,,,,,,,,,,,,293.90033,53.711987,3.739305,3.675396,9.498333,5.365876,2.038729,0.840432,1.141938,0.659983,77.658226,5.304686,1.463823,1.445284,1.766824,-1.0
1709134479.810372,4520.0,4164.102539,4432.307617,4.0,4.0,4.0,100.0,,,,,,,,,,,,,,,,,,,,,,,,,,,,,,,,,,,,,,,,,282.866516,56.85498,3.859689,4.176789,9.770423,3.899495,2.169847,0.945555,1.183054,0.701257,80.068024,5.894208,1.598556,1.493416,1.772515,-1.0
1709134479.935408,4420.512695,4207.179688,4430.256348,4.0,4.0,4.0,100.0,,,,,,,,,,,,,,,,,,,,,,,,,,,,,,,,,,,,,,,,,242.636078,51.596027,3.596777,4.769341,9.260314,2.710658,2.329544,1.096267,1.204578,0.699287,73.946228,5.892629,1.599382,1.439079,1.597626,-1.0
1709134480.060443,4343.077148,4159.487305,4313.333496,4.0,4.0,4.0,100.0,,,,,,,,,,,,,,,,,,,,,,,,,,,,,,,,,,,,,,,,,183.700912,40.476406,3.079517,5.356637,8.112231,2.052091,2.533078,1.235389,1.193509,0.655625,61.617931,5.521038,1.478745,1.311441,1.298594,-1.0
1709134480.185479,4285.641113,4116.410156,4226.153809,4.0,4.0,4.0,100.0,91.666664,3.0,4.0,4.0,,,,,,,,,,,,,,,,,,,,,,,,,,,,,,,,,,,,,127.772865,28.830606,2.530672,5.807715,6.756973,1.882046,2.76147,1.299122,1.15387,0.584097,48.324837,5.463098,1.284928,1.153574,0.97918,-1.0
1709134480.185479,4285.641113,4116.410156,4226.153809,4.0,4.0,4.0,100.0,91.666664,3.0,4.0,4.0,,,,,,,,,,,,,,,,,,,,,,,,,,,,,,,,,,,,,127.772865,28.830606,2.530672,5.807715,6.756973,1.882046,2.76147,1.299122,1.15387,0.584097,48.324837,5.463098,1.284928,1.153574,0.97918,-1.0
1709134480.310514,4272.820313,4229.230957,4246.666504,4.0,4.0,4.0,100.0,,,,,,,,,,,,,,,,,,,,,,,,,,,,,,,,,,,,,,,,,100.430305,21.827835,2.17733,6.027779,5.647667,2.066886,2.941974,1.259365,1.100156,0.506016,42.220821,6.394075,1.114526,1.010905,0.738637,-1.0
1709134480.43555,4444.615234,4129.230957,4374.871582,4.0,4.0,4.0,100.0,,,,,,,,,,,,,,,,,,,,,,,,,,,,,,,,,,,,,,,,,108.34568,21.816229,2.150249,5.999529,5.045402,2.415044,3.008208,1.145612,1.045793,0.441888,45.657543,8.463288,1.043497,0.914851,0.62837,-1.0
1709134480.560585,4290.769043,4132.820313,4283.077148,4.0,4.0,4.0,100.0,,,,,,,,,,,,,,,,,,,,,,,,,,,,,,,,,,,,,,,,,142.751373,27.290764,2.385668,5.760896,4.929064,3.448674,2.99153,1.058513,1.009079,0.404778,56.660507,11.123471,1.081637,0.872073,0.639343,-1.0
1709134480.685621,4231.794922,4078.974365,4232.820313,4.0,4.0,4.0,100.0,91.666664,3.0,4.0,4.0,,,,,,,,,,,,,,,,,,,,,,,,,,,,,,,,,,,,,181.12001,34.435055,2.711109,5.388873,5.081221,6.174433,2.959655,1.115115,1.009617,0.397257,68.168068,13.495767,1.182969,0.878289,0.723733,-1.0
1709134480.685621,4231.794922,4078.974365,4232.820313,4.0,4.0,4.0,100.0,91.666664,3.0,4.0,4.0,,,,,,,,,,,,,,,,,,,,,,,,,,,,,,,,,,,,,181.12001,34.435055,2.711109,5.388873,5.081221,6.174433,2.959655,1.115115,1.009617,0.397257,68.168068,13.495767,1.182969,0.878289,0.723733,-1.0
1709134480.810656,4241.025879,4085.128174,4201.025879,4.0,4.0,4.0,100.0,,,,,,,,,,,,,,,,,,,,,,,,,,,,,,,,,,,,,,,,,203.201218,39.157028,2.936622,4.975384,5.266218,11.328717,2.992991,1.370984,1.053992,0.410734,74.634422,14.696389,1.280431,0.921896,0.827646,-1.0
1709134480.935692,4226.666504,4108.205078,4156.410156,4.0,4.0,4.0,100.0,,,,,,,,,,,,,,,,,,,,,,,,,,,,,,,,,,,,,,,,,204.288696,40.05191,3.048259,4.610651,5.365511,18.730471,3.103963,1.761769,1.129445,0.42969,74.71344,14.465743,1.321268,0.992067,0.914271,-1.0
1709134481.060727,4216.922852,4100.0,4165.128418,4.0,4.0,4.0,100.0,,,,,,,,,,,,,,,,,,,,,,,,,,,,,,,,,,,,,,,,,186.807602,37.212868,3.125604,4.329337,5.368236,26.695988,3.20521,2.128055,1.206146,0.437879,68.806282,12.893344,1.255088,1.072621,0.960163,-1.0
1709134481.185763,4287.179688,4097.94873,4200.512695,4.0,4.0,4.0,100.0,100.0,4.0,4.0,4.0,,,,,,,,,,,,,,,,,,,,,,,,,,,,,,,,,,,,,159.220016,31.709377,3.219439,4.148518,5.303216,32.939373,3.189107,2.308913,1.24582,0.426119,60.069069,10.474455,1.089526,1.1389,0.954569,0.0
1709134481.185763,4287.179688,4097.94873,4200.512695,4.0,4.0,4.0,100.0,100.0,4.0,4.0,4.0,,,,,,,,,,,,,,,,,,,,,,,,,,,,,,,,,,,,,159.220016,31.709377,3.219439,4.148518,5.303216,32.939373,3.189107,2.308913,1.24582,0.426119,60.069069,10.474455,1.089526,1.1389,0.954569,0.0
